Depth ice/snow [m],Age model [ka],δD [‰ SMOW],delta T [°C],Sample ID
49.5,0.976,-393.8,0.38,91
50.05,0.99,-398.5,-0.4,92
50.6,1.005,-398.7,-0.44,93
51.15,1.019,-401.8,-0.95,94
51.7,1.032,-395.2,0.14,95
52.25,1.047,-390.1,0.99,96
52.8,1.061,-393.9,0.36,97
53.35,1.075,-400.6,-0.75,98
53.9,1.089,-400.9,-0.8,99
54.45,1.104,-391.7,0.72,100
55,1.118,-399.3,-0.54,101
55.55,1.133,-386.7,1.55,102
56.1,1.147,-401.5,-0.9,103
56.65,1.161,-398.1,-0.34,104
57.2,1.174,-390.4,0.93,105
57.75,1.188,-389.8,1.03,106
58.3,1.201,-390.7,0.88,107
58.85,1.215,-399.3,-0.54,108
59.4,1.229,-392.5,0.58,109
59.95,1.244,-393.8,0.37,110
60.5,1.258,-394.4,0.27,111
61.05,1.273,-397,-0.16,112
61.6,1.287,-397.8,-0.3,113
62.15,1.302,-388.6,1.23,114
62.7,1.316,-394.7,0.22,115
63.25,1.33,-390.6,0.89,116
63.8,1.345,-397,-0.17,117
64.35,1.359,-386.6,1.55,118
64.9,1.373,-390.6,0.89,119
65.45,1.387,-397,-0.17,120
66,1.401,-396.1,-0.02,121
66.55,1.416,-398.9,-0.48,122
67.1,1.432,-400.2,-0.7,123
67.65,1.448,-398.7,-0.45,124
68.2,1.463,-389.7,1.04,125
68.75,1.479,-401.6,-0.93,126
69.3,1.494,-397.9,-0.32,127
69.85,1.51,-399.2,-0.54,128
70.4,1.525,-397.6,-0.27,129
70.95,1.541,-390.5,0.9,130
71.5,1.556,-401.5,-0.92,131
72.05,1.572,-395.7,0.04,132
72.6,1.588,-394.5,0.24,133
73.15,1.604,-402.9,-1.15,134
73.7,1.621,-401,-0.84,135
74.25,1.637,-391.5,0.73,136
74.8,1.654,-403.4,-1.24,137
75.35,1.67,-393.4,0.42,138
75.9,1.686,-393.8,0.35,139
76.45,1.702,-400.8,-0.81,140
77,1.72,-399.3,-0.56,141
77.55,1.737,-396.6,-0.11,142
78.1,1.754,-395.3,0.1,143
78.65,1.771,-392.6,0.55,144
79.2,1.787,-404.4,-1.41,145
79.75,1.804,-394.4,0.25,146
80.3,1.822,-402.2,-1.04,147
80.85,1.839,-401.9,-0.99,148
81.4,1.856,-393.8,0.35,149
81.95,1.873,-402.3,-1.06,150
82.5,1.889,-385.1,1.79,151
83.05,1.905,-395.9,0,152
83.6,1.922,-395.8,0.01,153
84.15,1.938,-398.2,-0.38,154
84.7,1.956,-394.8,0.18,155
85.25,1.973,-397.7,-0.3,156
85.8,1.99,-400.3,-0.73,157
86.35,2.007,-402.4,-1.08,158
86.9,2.025,-396,-0.02,159
87.45,2.044,-401.4,-0.92,160
88,2.061,-386.1,1.62,161
88.55,2.078,-400.1,-0.7,162
89.1,2.095,-400.3,-0.74,163
89.65,2.113,-393.2,0.44,164
90.2,2.13,-399.7,-0.64,165
90.75,2.147,-397.9,-0.34,166
91.3,2.165,-402,-1.02,167
91.85,2.184,-398.7,-0.48,168
92.4,2.202,-398.6,-0.46,169
92.95,2.219,,0.2,170
93.5,2.237,-390.6,0.86,171
94.05,2.253,-394,0.3,172
94.6,2.271,-397.9,-0.35,173
95.15,2.289,-394.8,0.17,174
95.7,2.306,-408.2,-2.05,175
96.25,2.327,-404.3,-1.41,176
96.8,2.347,-399.6,-0.63,177
97.35,2.367,-400.8,-0.83,178
97.9,2.385,-401.5,-0.94,179
98.45,2.405,-407.7,-1.97,180
99,2.424,-400.5,-0.78,181
99.55,2.443,-395.8,0,182
100.1,2.463,-399.7,-0.65,183
100.65,2.481,-399.6,-0.63,184
101.2,2.5,-394.8,0.16,185
101.75,2.518,-398.5,-0.45,186
102.3,2.535,-390.2,0.92,187
102.85,2.553,-396.4,-0.11,188
103.4,2.571,-392.7,0.51,189
103.95,2.589,-400.4,-0.77,190
104.5,2.607,-393.5,0.37,191
105.05,2.625,-390.6,0.85,192
105.6,2.642,-395.2,0.09,193
106.15,2.659,-396.9,-0.19,194
106.7,2.678,-399.1,-0.56,195
107.25,2.697,-396.9,-0.2,196
107.8,2.715,-401,-0.88,197
108.35,2.733,-387.9,1.29,198
108.9,2.75,-390.3,0.89,199
109.45,2.767,-390.8,0.81,200
110,2.784,-390.2,0.91,201
110.55,2.801,-395.6,0.01,202
111.1,2.818,-387.7,1.32,203
111.65,2.835,-388.9,1.12,204
112.2,2.852,-388.9,1.12,205
112.75,2.87,-395.4,0.04,206
113.3,2.888,-399.5,-0.64,207
113.85,2.906,-401.7,-1,208
114.4,2.924,-392.2,0.57,209
114.95,2.943,-393.9,0.29,210
115.5,2.961,-397.7,-0.34,211
116.05,2.98,-401.1,-0.91,212
116.6,3,-395.7,-0.01,213
117.15,3.019,-398.7,-0.51,214
117.7,3.037,-395,0.1,215
118.25,3.056,-394.7,0.15,216
118.8,3.074,-395.8,-0.03,217
119.35,3.092,-391.8,0.63,218
119.9,3.11,,0.95,219
120.45,3.129,-387.9,1.27,220
121,3.147,-404.4,-1.46,221
121.55,3.165,-401.1,-0.91,222
122.1,3.186,-403.4,-1.3,223
122.65,3.207,-391.8,0.62,224
123.2,3.227,-400.5,-0.82,225
123.75,3.247,-406.2,-1.76,226
124.3,3.267,-392.7,0.47,227
124.85,3.287,-400,-0.74,228
125.4,3.307,-401.9,-1.05,229
125.95,3.326,-391.3,0.7,230
126.5,3.346,-399.8,-0.71,231
127.05,3.365,-404.2,-1.44,232
127.6,3.385,-395.6,-0.01,233
128.15,3.405,-397.2,-0.28,234
128.7,3.425,-398.2,-0.44,235
129.25,3.445,-396.6,-0.18,236
129.8,3.465,-395.6,-0.02,237
130.35,3.484,-392.7,0.46,238
130.9,3.503,-401.8,-1.04,239
131.45,3.522,-387.3,1.35,240
132,3.541,-394.6,0.15,241
132.55,3.559,-397.2,-0.29,242
133.1,3.578,-394.5,0.16,243
133.65,3.598,-399.5,-0.67,244
134.2,3.618,-389.9,0.92,245
134.75,3.636,-390.8,0.77,246
135.3,3.654,-394.4,0.17,247
135.85,3.672,-391.7,0.62,248
136.4,3.691,-389.2,1.03,249
136.95,3.709,-401.6,-1.02,250
137.5,3.727,-387.2,1.36,251
138.05,3.746,-387.8,1.26,252
138.6,3.764,-404.9,-1.57,253
139.15,3.783,-388.9,1.07,254
139.7,3.802,-394.9,0.08,255
140.25,3.822,-393.8,0.26,256
140.8,3.842,-399.6,-0.7,257
141.35,3.861,-400.9,-0.92,258
141.9,3.881,-391,0.72,259
142.45,3.9,-396.1,-0.12,260
143,3.92,-398.5,-0.52,261
143.55,3.94,-396.5,-0.19,262
144.1,3.96,-397.8,-0.41,263
144.65,3.98,-392.9,0.4,264
145.2,3.999,-398.7,-0.56,265
145.75,4.019,-398.9,-0.59,266
146.3,4.038,-390.6,0.78,267
146.85,4.057,-390.4,0.81,268
147.4,4.076,-402.3,-1.16,269
147.95,4.095,-389.9,0.89,270
148.5,4.115,-390.3,0.82,271
149.05,4.134,-398.8,-0.59,272
149.6,4.154,-397.8,-0.42,273
150.15,4.173,-394.9,0.06,274
150.7,4.193,-392.2,0.5,275
151.25,4.212,-404.7,-1.57,276
151.8,4.231,-391.2,0.67,277
152.35,4.25,-387.3,1.31,278
152.9,4.269,-396.4,-0.2,279
153.45,4.288,-387,1.36,280
154,4.307,-398.1,-0.48,281
154.55,4.326,-401.4,-1.03,282
155.1,4.347,-395.2,0,283
155.65,4.367,-393.4,0.29,284
156.2,4.387,-394.9,0.04,285
156.75,4.406,-397.1,-0.32,286
157.3,4.426,-400.6,-0.9,287
157.85,4.445,-393,0.35,288
158.4,4.465,-387.1,1.33,289
158.95,4.484,-397.5,-0.39,290
159.5,4.503,-390.4,0.78,291
160.05,4.521,-399.3,-0.7,292
160.6,4.542,-397.5,-0.4,293
161.15,4.562,-399.9,-0.8,294
161.7,4.582,-395,0.01,295
162.25,4.602,-394.1,0.16,296
162.8,4.622,-393.4,0.27,297
163.35,4.642,-398.4,-0.56,298
163.9,4.661,-395.1,-0.01,299
164.45,4.681,-396,-0.16,300
165,4.701,-397.3,-0.38,301
165.55,4.721,-389.3,0.94,302
166.1,4.741,-399.6,-0.76,303
166.65,4.76,-402.3,-1.21,304
167.2,4.781,-396.7,-0.28,305
167.75,4.801,-397.2,-0.37,306
168.3,4.821,-402,-1.16,307
168.85,4.842,-396.9,-0.32,308
169.4,4.863,-390.9,0.67,309
169.95,4.882,-393.4,0.25,310
170.5,4.901,-395.9,-0.16,311
171.05,4.92,-395.1,-0.03,312
171.6,4.939,-392.7,0.37,313
172.15,4.958,-389,0.98,314
172.7,4.978,-397.9,-0.5,315
173.25,4.997,-398.9,-0.66,316
173.8,5.018,-396.8,-0.32,317
174.35,5.037,-396.6,-0.29,318
174.9,5.057,-392.7,0.36,319
175.45,5.077,-400.6,-0.95,320
176,5.097,-396.3,-0.24,321
176.55,5.118,-395.6,-0.13,322
177.1,5.137,-393.3,0.25,323
177.65,5.156,-391.4,0.56,324
178.2,5.175,-391.3,0.58,325
178.75,5.193,-393.2,0.26,326
179.3,5.212,-397.6,-0.47,327
179.85,5.232,-395.8,-0.17,328
180.4,5.253,-403.1,-1.38,329
180.95,5.273,-396.3,-0.26,330
181.5,5.293,-390.6,0.69,331
182.05,5.312,-396,-0.21,332
182.6,5.332,-390.6,0.68,333
183.15,5.351,-396.3,-0.26,334
183.7,5.37,-394.5,0.03,335
184.25,5.389,-391.4,0.54,336
184.8,5.409,-407.6,-2.14,337
185.35,5.43,-401.2,-1.08,338
185.9,5.453,-402.4,-1.28,339
186.45,5.474,-395,-0.06,340
187,5.495,-402.5,-1.3,341
187.55,5.516,-407.9,-2.19,342
188.1,5.539,-399.6,-0.82,343
188.65,5.561,-394.6,0,344
189.2,5.58,-387.2,1.23,345
189.75,5.598,-396.2,-0.26,346
190.3,5.617,-394,0.1,347
190.85,5.637,-399.1,-0.75,348
191.4,5.657,-395.2,-0.1,349
191.95,5.677,-396,-0.24,350
192.5,5.697,-400.4,-0.97,351
193.05,5.717,-391.1,0.57,352
193.6,5.736,-399.2,-0.77,353
194.15,5.756,-386.2,1.38,354
194.7,5.774,-398.9,-0.72,355
195.25,5.793,-389,0.91,356
195.8,5.811,-388.4,1.01,357
196.35,5.831,-400.4,-0.98,358
196.9,5.85,-392.7,0.29,359
197.45,5.868,-391,0.57,360
198,5.887,-392.5,0.32,361
198.55,5.905,-397.7,-0.54,362
199.1,5.926,-399.8,-0.89,363
199.65,5.946,-398.7,-0.71,364
200.2,5.967,-403.7,-1.54,365
200.75,5.989,-397.4,-0.5,366
201.3,6.009,-391.7,0.45,367
201.85,6.028,-394.5,-0.02,368
202.4,6.047,-396.8,-0.4,369
202.95,6.067,-399.2,-0.8,370
203.5,6.087,-394,0.06,371
204.05,6.107,-391.4,0.49,372
204.6,6.127,-403.5,-1.52,373
205.15,6.147,-389.5,0.8,374
205.7,6.166,-399.9,-0.93,375
206.25,6.186,-397.4,-0.51,376
206.8,6.205,-398.6,-0.71,377
207.35,6.225,-394.1,0.03,378
207.9,6.245,-398.4,-0.68,379
208.45,6.265,-401.7,-1.23,380
209,6.286,-392.6,0.27,381
209.55,6.306,-395.4,-0.19,382
210.1,6.326,-402.1,-1.3,383
210.65,6.346,-403.6,-1.55,384
211.2,6.367,-396.5,-0.38,385
211.75,6.388,-402.5,-1.37,386
212.3,6.409,-398.8,-0.76,387
212.85,6.43,-397,-0.47,388
213.4,6.449,-389.4,0.79,389
213.95,6.468,-395,-0.14,390
214.5,6.487,-404.9,-1.78,391
215.05,6.509,-402.2,-1.34,392
215.6,6.531,-389.2,0.81,393
216.15,6.55,-397,-0.48,394
216.7,6.57,-401.8,-1.27,395
217.25,6.59,-398.4,-0.71,396
217.8,6.612,-407.8,-2.27,397
218.35,6.633,-395.4,-0.22,398
218.9,6.654,-403.1,-1.5,399
219.45,6.675,-406.1,-2,400
220,6.695,-390.4,0.6,401
220.55,6.715,-392.6,0.23,402
221.1,6.735,-395.7,-0.28,403
221.65,6.755,-402.9,-1.47,404
222.2,6.775,-401.9,-1.31,405
222.75,6.797,-401.2,-1.2,406
223.3,6.818,-400.4,-1.07,407
223.85,6.838,-397.5,-0.59,408
224.4,6.858,-389.4,0.75,409
224.95,6.877,-395.4,-0.25,410
225.5,6.895,-387.9,0.99,411
226.05,6.913,-398.3,-0.73,412
226.6,6.933,-398.7,-0.8,413
227.15,6.953,-401.3,-1.23,414
227.7,6.974,-396.8,-0.49,415
228.25,6.994,-395.6,-0.29,416
228.8,7.013,-402.5,-1.44,417
229.35,7.034,-399.5,-0.94,418
229.9,7.056,-397.8,-0.66,419
230.45,7.076,-400.5,-1.11,420
231,7.097,-400.8,-1.16,421
231.55,7.118,-396.1,-0.39,422
232.1,7.139,-405.3,-1.91,423
232.65,7.16,-411.9,-3,424
233.2,7.183,-401.7,-1.32,425
233.75,7.206,-399.3,-0.93,426
234.3,7.228,-404.7,-1.82,427
234.85,7.249,-403.1,-1.56,428
235.4,7.27,-402.3,-1.43,429
235.95,7.292,-396.1,-0.4,430
236.5,7.311,-388.3,0.88,431
237.05,7.33,-398.5,-0.81,432
237.6,7.349,-406.3,-2.1,433
238.15,7.371,-399.9,-1.04,434
238.7,7.392,-404.7,-1.84,435
239.25,7.414,-403.8,-1.69,436
239.8,7.436,-395,-0.24,437
240.35,7.457,-402.8,-1.53,438
240.9,7.478,-404.2,-1.77,439
241.45,7.498,-399.1,-0.93,440
242,7.519,-393.3,0.03,441
242.55,7.539,-399.1,-0.93,442
243.1,7.557,-389.2,0.7,443
243.65,7.576,-397.7,-0.71,444
244.2,7.595,-388.4,0.83,445
244.75,7.614,-400.3,-1.14,446
245.3,7.633,-403.7,-1.71,447
245.85,7.655,-398.3,-0.82,448
246.4,7.676,-396.1,-0.46,449
246.95,7.695,-390.7,0.43,450
247.5,7.714,-404.7,-1.88,451
248.05,7.733,-400.2,-1.14,452
248.6,7.753,-388.5,0.79,453
249.15,7.773,-390.4,0.47,454
249.7,7.792,-405.5,-2.03,455
250.25,7.812,-399.5,-1.04,456
250.8,7.833,-402.1,-1.47,457
251.35,7.854,-402.2,-1.49,458
251.9,7.874,-395.2,-0.34,459
252.45,7.894,-391.6,0.26,460
253,7.913,-396.5,-0.56,461
253.55,7.933,-399.5,-1.06,462
254.1,7.953,-400.6,-1.24,463
254.65,7.974,-401.6,-1.41,464
255.2,7.995,-400.6,-1.25,465
255.75,8.016,-406.3,-2.19,466
256.3,8.038,-398.3,-0.87,467
256.85,8.06,-411.7,-3.09,468
257.4,8.083,-399.8,-1.13,469
257.95,8.104,-396.9,-0.65,470
258.5,8.124,-401.4,-1.4,471
259.05,8.145,-405.3,-2.04,472
259.6,8.168,-408.3,-2.54,473
260.15,8.191,-406.5,-2.25,474
260.7,8.213,-400.8,-1.31,475
261.25,8.235,-403.2,-1.71,476
261.8,8.256,-397.5,-0.77,477
262.35,8.277,-401,-1.35,478
262.9,8.298,-401.5,-1.43,479
263.45,8.319,-400.4,-1.26,480
264,8.34,-400.3,-1.24,481
264.55,8.361,-407.3,-2.4,482
265.1,8.383,-403,-1.69,483
265.65,8.405,-404.2,-1.89,484
266.2,8.427,-401.2,-1.4,485
266.75,8.448,-397.2,-0.74,486
267.3,8.468,-396.9,-0.7,487
267.85,8.488,-397.8,-0.85,488
268.4,8.508,-409.5,-2.79,489
268.95,8.529,-397.1,-0.74,490
269.5,8.55,-390.3,0.38,491
270.05,8.57,-397.5,-0.81,492
270.6,8.589,-401.9,-1.54,493
271.15,8.609,-392.4,0.02,494
271.7,8.629,-399.9,-1.22,495
272.25,8.648,-399.3,-1.13,496
272.8,8.668,-396.7,-0.7,497
273.35,8.688,-402.1,-1.6,498
273.9,8.709,-401.8,-1.55,499
274.45,8.73,-397.5,-0.84,500
275,8.75,-400.2,-1.29,501
275.55,8.77,-395,-0.44,502
276.1,8.79,-404.4,-2,503
276.65,8.811,-402.1,-1.62,504
277.2,8.833,-397.9,-0.93,505
277.75,8.852,-393.4,-0.19,506
278.3,8.872,-397.7,-0.9,507
278.85,8.891,-397.4,-0.86,508
279.4,8.911,-397.4,-0.86,509
279.95,8.931,-399,-1.13,510
280.5,8.95,-391.8,0.05,511
281.05,8.969,-392.7,-0.1,512
281.6,8.988,-401.1,-1.49,513
282.15,9.008,-396.1,-0.67,514
282.7,9.027,-397.7,-0.94,515
283.25,9.047,-395.6,-0.59,516
283.8,9.066,-398.6,-1.09,517
284.35,9.086,-394.9,-0.49,518
284.9,9.105,-394.9,-0.49,519
285.45,9.126,-407.4,-2.56,520
286,9.147,-403.4,-1.9,521
286.55,9.168,-392.2,-0.06,522
287.1,9.187,-400.4,-1.42,523
287.65,9.207,-391.1,0.11,524
288.2,9.224,-388.5,0.54,525
288.75,9.242,-394.8,-0.51,526
289.3,9.262,-397.7,-0.99,527
289.85,9.281,-401.2,-1.57,528
290.4,9.301,-391.9,-0.04,529
290.95,9.319,-393.3,-0.28,530
291.5,9.338,-394.3,-0.45,531
292.05,9.357,-395,-0.57,532
292.6,9.376,-392.4,-0.14,533
293.15,9.394,-393.5,-0.33,534
293.7,9.412,-390,0.24,535
294.25,9.43,,0.36,536
294.8,9.447,-388.5,0.48,537
295.35,9.464,-394.3,-0.48,538
295.9,9.484,-403.6,-2.02,539
296.45,9.504,-393.3,-0.33,540
297,9.523,-398,-1.11,541
297.55,9.542,-391,0.04,542
298.1,9.561,-395.8,-0.75,543
298.65,9.578,-386.4,0.79,544
299.2,9.596,-391.8,-0.1,545
299.75,9.614,-398.2,-1.16,546
300.3,9.633,-391.6,-0.08,547
300.85,9.652,-393.4,-0.38,548
301.4,9.669,-384.4,1.11,549
301.95,9.686,-391.3,-0.04,550
302.5,9.704,-391,0.01,551
303.05,9.721,-388.3,0.45,552
303.6,9.738,-391.4,-0.07,553
304.15,9.755,-382.9,1.33,554
304.7,9.772,-387.2,0.62,555
305.25,9.789,-405.5,-2.4,556
305.8,9.809,-391.7,-0.13,557
306.35,9.828,-392.1,-0.2,558
306.9,9.847,-400.4,-1.57,559
307.45,9.866,-386.7,0.68,560
308,9.884,-394.5,-0.61,561
308.55,9.902,-389.9,0.15,562
309.1,9.92,-394.7,-0.65,563
309.65,9.939,-396.6,-0.97,564
310.2,9.957,-388.6,0.35,565
310.75,9.976,-392.9,-0.36,566
311.3,9.994,-395.2,-0.75,567
311.85,10.012,-389.1,0.26,568
312.4,10.029,-388.7,0.32,569
312.95,10.047,-391.8,-0.2,570
313.5,10.065,-388.8,0.29,571
314.05,10.083,-397.7,-1.18,572
314.6,10.101,-390.4,0.02,573
315.15,10.117,-382.1,1.39,574
315.7,10.134,-387.9,0.43,575
316.25,10.151,-390.6,-0.02,576
316.8,10.169,-393.3,-0.47,577
317.35,10.187,-388.1,0.38,578
317.9,10.205,-391.6,-0.2,579
318.45,10.222,-396.9,-1.08,580
319,10.241,-398.7,-1.38,581
319.55,10.259,-386.6,0.61,582
320.1,10.278,-390.7,-0.07,583
320.65,10.295,-391.2,-0.15,584
321.2,10.313,-389.5,0.12,585
321.75,10.331,-400.9,-1.76,586
322.3,10.35,-388.6,0.26,587
322.85,10.369,-397.9,-1.27,588
323.4,10.388,-393,-0.47,589
323.95,10.407,-394.4,-0.71,590
324.5,10.426,-399.4,-1.53,591
325.05,10.445,-388.2,0.31,592
325.6,10.462,-386.8,0.53,593
326.15,10.479,-383,1.16,594
326.7,10.495,-387.5,0.41,595
327.25,10.511,-390.1,-0.02,596
327.8,10.527,-377.1,2.12,597
328.35,10.543,-397.4,-1.23,598
328.9,10.562,-390.6,-0.12,599
329.45,10.58,-393.2,-0.55,600
330,10.599,-395.2,-0.88,601
330.55,10.618,-393.7,-0.64,602
331.1,10.637,-392.9,-0.51,603
331.65,10.655,-391.4,-0.27,604
332.2,10.673,-384.5,0.86,605
332.75,10.691,-394.4,-0.77,606
333.3,10.708,-394.8,-0.84,607
333.85,10.727,-395.8,-1.01,608
334.4,10.746,-396.2,-1.08,609
334.95,10.766,-395.4,-0.96,610
335.5,10.784,-391.7,-0.35,611
336.05,10.803,-390.9,-0.22,612
336.6,10.821,-388,0.25,613
337.15,10.838,-392.6,-0.51,614
337.7,10.856,-397.7,-1.36,615
338.25,10.875,-394.3,-0.8,616
338.8,10.895,-391.4,-0.33,617
339.35,10.913,-387.7,0.28,618
339.9,10.931,-395.2,-0.96,619
340.45,10.949,-400.3,-1.81,620
341,10.969,-393.3,-0.66,621
341.55,10.989,-390,-0.12,622
342.1,11.006,-390.9,-0.27,623
342.65,11.024,-387.4,0.3,624
343.2,11.042,-389.7,-0.08,625
343.75,11.06,-398,-1.45,626
344.3,11.079,-396.1,-1.14,627
344.85,11.098,-392,-0.47,628
345.4,11.117,-397.7,-1.41,629
345.95,11.136,-398.9,-1.62,630
346.5,11.157,-394.7,-0.93,631
347.05,11.175,-386.8,0.37,632
347.6,11.192,-385.8,0.53,633
348.15,11.209,-387.9,0.18,634
348.7,11.228,-390.7,-0.29,635
349.25,11.246,-402,-2.15,636
349.8,11.265,-392.6,-0.61,637
350.35,11.283,-390.8,-0.32,638
350.9,11.302,-394.6,-0.95,639
351.45,11.319,-381,1.29,640
352,11.336,-382.1,1.11,641
352.55,11.354,-399.5,-1.77,642
353.1,11.373,-393.5,-0.78,643
353.65,11.392,-398.4,-1.59,644
354.2,11.411,-393.4,-0.77,645
354.75,11.43,-390.9,-0.37,646
355.3,11.448,-386.1,0.42,647
355.85,11.465,-387.8,0.14,648
356.4,11.482,-383.8,0.79,649
356.95,11.499,-386.9,0.28,650
357.5,11.516,-393,-0.73,651
358.05,11.535,-396.6,-1.33,652
358.6,11.554,-394.1,-0.92,653
359.15,11.573,-395.5,-1.16,654
359.7,11.593,-395.4,-1.15,655
360.25,11.612,-389.6,-0.19,656
360.8,11.631,-394.8,-1.05,657
361.35,11.649,-388.3,0.01,658
361.9,11.667,-394.8,-1.06,659
362.45,11.686,-387.9,0.07,660
363,11.704,-396.1,-1.29,661
363.55,11.723,-391.3,-0.5,662
364.1,11.742,-393.6,-0.88,663
364.65,11.76,-387.8,0.07,664
365.2,11.779,-396.1,-1.3,665
365.75,11.798,-403.2,-2.48,666
366.3,11.82,-399.4,-1.85,667
366.85,11.841,-400.8,-2.09,668
367.4,11.863,-399.4,-1.86,669
367.95,11.884,-400.9,-2.11,670
368.5,11.905,-399.2,-1.84,671
369.05,11.927,-404.9,-2.78,672
369.6,11.949,-404,-2.64,673
370.15,11.972,-398.2,-1.69,674
370.7,11.993,-400,-1.99,675
371.25,12.014,-399.8,-1.96,676
371.8,12.037,-406.2,-3.02,677
372.35,12.059,-403.5,-2.57,678
372.9,12.082,-405.5,-2.91,679
373.45,12.106,-414.8,-4.44,680
374,12.131,-406.2,-3.03,681
374.55,12.156,-405.8,-2.97,682
375.1,12.181,-410.9,-3.81,683
375.65,12.205,-403.7,-2.63,684
376.2,12.227,-400.6,-2.12,685
376.75,12.25,-409.6,-3.61,686
377.3,12.273,-401.2,-2.23,687
377.85,12.297,-413.3,-4.23,688
378.4,12.324,-414.3,-4.4,689
378.95,12.35,-408.8,-3.49,690
379.5,12.376,-417.4,-4.91,691
380.05,12.402,-406.8,-3.17,692
380.6,12.427,-404.3,-2.76,693
381.15,12.452,-412.4,-4.1,694
381.7,12.477,-412.6,-4.14,695
382.25,12.503,-410.9,-3.86,696
382.8,12.53,-420.8,-5.5,697
383.35,12.559,-417.2,-4.91,698
383.9,12.588,-418.8,-5.17,699
384.45,12.617,-415.6,-4.65,700
385,12.646,-418.6,-5.15,701
385.55,12.673,-410.9,-3.88,702
386.1,12.7,-413.7,-4.35,703
386.65,12.727,-412.7,-4.19,704
387.2,12.754,-419.3,-5.28,705
387.75,12.784,-420.8,-5.53,706
388.3,12.813,-412.1,-4.1,707
388.85,12.841,-416,-4.74,708
389.4,12.867,-408.8,-3.56,709
389.95,12.894,-413.9,-4.41,710
390.5,12.922,-416.4,-4.82,711
391.05,12.95,-417.7,-5.04,712
391.6,12.978,-414.9,-4.58,713
392.15,13.005,-410.4,-3.85,714
392.7,13.032,-411.6,-4.05,715
393.25,13.059,-415,-4.61,716
393.8,13.087,-418.4,-5.17,717
394.35,13.115,-415.5,-4.7,718
394.9,13.143,-412.9,-4.27,719
395.45,13.17,-408,-3.47,720
396,13.196,-410.8,-3.94,721
396.55,13.222,-414.8,-4.6,722
397.1,13.249,-408.7,-3.6,723
397.65,13.275,-408.5,-3.57,724
398.2,13.3,-411.8,-4.12,725
398.75,13.327,-412.8,-4.28,726
399.3,13.354,-419,-5.31,727
399.85,13.383,-417.5,-5.06,728
400.4,13.412,-414,-4.49,729
400.95,13.44,-416.6,-4.92,730
401.5,13.468,-410.8,-3.97,731
402.05,13.495,-403.4,-2.76,732
402.6,13.52,-413.7,-4.46,733
403.15,13.546,-410.2,-3.88,734
403.7,13.572,-415.9,-4.83,735
404.25,13.6,-416.8,-4.98,736
404.8,13.629,-417.3,-5.06,737
405.35,13.658,-417.1,-5.03,738
405.9,13.687,-411.9,-4.18,739
406.45,13.715,-415.5,-4.78,740
407,13.742,-413.4,-4.43,741
407.55,13.77,-405,-3.06,742
408.1,13.796,-417.2,-5.07,743
408.65,13.822,-405.5,-3.15,744
409.2,13.848,-414.3,-4.6,745
409.75,13.875,-414.8,-4.68,746
410.3,13.903,-412,-4.23,747
410.85,13.93,-407.5,-3.49,748
411.4,13.956,-403.4,-2.82,749
411.95,13.979,-402.3,-2.64,750
412.5,14.002,-405.9,-3.24,751
413.05,14.028,-410.4,-3.98,752
413.6,14.053,-410.8,-4.05,753
414.15,14.08,-413.4,-4.48,754
414.7,14.106,-406,-3.27,755
415.25,14.131,-402.6,-2.71,756
415.8,14.156,-404.3,-3,757
416.35,14.18,-406.9,-3.43,758
416.9,14.205,-411.2,-4.14,759
417.45,14.23,-392.2,-1.02,760
418,14.252,-397.7,-1.93,761
418.55,14.273,-399.1,-2.16,762
419.1,14.295,-402.3,-2.69,763
419.65,14.318,-401.1,-2.5,764
420.2,14.341,-403.9,-2.96,765
420.75,14.364,-401.2,-2.52,766
421.3,14.39,-418.2,-5.32,767
421.85,14.417,-408.8,-3.78,768
422.4,14.442,-402.3,-2.71,769
422.95,14.467,-411.1,-4.17,770
423.5,14.493,-411.1,-4.17,771
424.05,14.52,-407.3,-3.55,772
424.6,14.547,-413.6,-4.59,773
425.15,14.574,-411.2,-4.2,774
425.7,14.601,-418.6,-5.42,775
426.25,14.631,-415.7,-4.94,776
426.8,14.66,-411.3,-4.22,777
427.35,14.688,-416.2,-5.03,778
427.9,14.716,-412.6,-4.44,779
428.45,14.744,-407.6,-3.62,780
429,14.77,-410.1,-4.04,781
429.55,14.796,-411.6,-4.29,782
430.1,14.823,-407.5,-3.62,783
430.65,14.85,-409.9,-4.02,784
431.2,14.876,-411.3,-4.25,785
431.75,14.904,-419,-5.52,786
432.3,14.933,-399.4,-2.3,787
432.85,14.959,-413,-4.54,788
433.4,14.984,-416.4,-5.1,789
433.95,15.014,-416.3,-5.09,790
434.5,15.042,-410,-4.05,791
435.05,15.07,-410.7,-4.17,792
435.6,15.097,-412.7,-4.5,793
436.15,15.125,-411.8,-4.36,794
436.7,15.153,-414.2,-4.76,795
437.25,15.182,-416.6,-5.16,796
437.8,15.211,-420,-5.72,797
438.35,15.242,-418.5,-5.47,798
438.9,15.273,-419.6,-5.66,799
439.45,15.304,-418.7,-5.51,800
440,15.335,-420.1,-5.74,801
440.55,15.366,-419.8,-5.7,802
441.1,15.397,-414,-4.75,803
441.65,15.427,-416.2,-5.11,804
442.2,15.457,-417.6,-5.35,805
442.75,15.487,-421.6,-6.01,806
443.3,15.518,-416.6,-5.19,807
443.85,15.549,-423.8,-6.37,808
444.4,15.581,-414.2,-4.8,809
444.95,15.612,-417.8,-5.39,810
445.5,15.642,-416.9,-5.25,811
446.05,15.672,-419.1,-5.61,812
446.6,15.703,-417.3,-5.32,813
447.15,15.734,-419.1,-5.62,814
447.7,15.765,-420.3,-5.82,815
448.25,15.797,-422.5,-6.18,816
448.8,15.83,-417.7,-5.39,817
449.35,15.862,-425.4,-6.66,818
449.9,15.894,-420.8,-5.91,819
450.45,15.927,-421.1,-5.96,820
451,15.96,-424.1,-6.46,821
451.55,15.994,-426.8,-6.9,822
452.1,16.029,-425.9,-6.76,823
452.65,16.063,-420.9,-5.94,824
453.2,16.096,-421.9,-6.1,825
453.75,16.129,-421.7,-6.07,826
454.3,16.162,-422.6,-6.22,827
454.85,16.196,-429.8,-7.41,828
455.4,16.231,-423.9,-6.44,829
455.95,16.266,-421.9,-6.12,830
456.5,16.299,-425.8,-6.76,831
457.05,16.334,-426,-6.79,832
457.6,16.369,-425.7,-6.75,833
458.15,16.404,-426.4,-6.86,834
458.7,16.44,-434.2,-8.15,835
459.25,16.478,-427.5,-7.05,836
459.8,16.516,-429.9,-7.44,837
460.35,16.553,-428.1,-7.15,838
460.9,16.589,-426.1,-6.82,839
461.45,16.626,-438.3,-8.83,840
462,16.665,-429.4,-7.37,841
462.55,16.705,-434.5,-8.21,842
463.1,16.744,-433.9,-8.11,843
463.65,16.784,-434.6,-8.23,844
464.2,16.825,-439.3,-9,845
464.75,16.867,-431.6,-7.74,846
465.3,16.907,-432,-7.8,847
465.85,16.947,-435.5,-8.38,848
466.4,16.986,-429.4,-7.38,849
466.95,17.025,-437.2,-8.66,850
467.5,17.066,-429.5,-7.4,851
468.05,17.105,-441.5,-9.37,852
468.6,17.148,-436.2,-8.5,853
469.15,17.19,-435.6,-8.4,854
469.7,17.233,-439.9,-9.11,855
470.25,17.275,-435.5,-8.39,856
470.8,17.318,-439.7,-9.08,857
471.35,17.361,-442.5,-9.54,858
471.9,17.407,-442.1,-9.47,859
472.45,17.453,-442.1,-9.47,860
473,17.499,-443.5,-9.7,861
473.55,17.545,-433.9,-8.13,862
474.1,17.586,-439,-8.97,863
474.65,17.63,-443.7,-9.74,864
475.2,17.676,-438.6,-8.9,865
475.75,17.72,-438.4,-8.87,866
476.3,17.764,-442.5,-9.54,867
476.85,17.81,-444.2,-9.82,868
477.4,17.857,-443.1,-9.64,869
477.95,17.903,-440.5,-9.21,870
478.5,17.949,-440.7,-9.25,871
479.05,17.993,-438.8,-8.94,872
479.6,18.037,-440.3,-9.18,873
480.15,18.082,-441.9,-9.45,874
480.7,18.128,-441.7,-9.41,875
481.25,18.174,-441.4,-9.36,876
481.8,18.219,-442.3,-9.51,877
482.35,18.266,-441.6,-9.4,878
482.9,18.312,-447.4,-10.35,879
483.45,18.361,-437.2,-8.67,880
484,18.405,-440.8,-9.26,881
484.55,18.449,-436.5,-8.56,882
485.1,18.493,-444.8,-9.92,883
485.65,18.54,-440.5,-9.21,884
486.2,18.586,-442.9,-9.61,885
486.75,18.632,-441.4,-9.36,886
487.3,18.678,-439.3,-9.02,887
487.85,18.723,-443.4,-9.69,888
488.4,18.769,-438.2,-8.84,889
488.95,18.815,-446,-10.12,890
489.5,18.862,-441.3,-9.34,891
490.05,18.908,-435.8,-8.44,892
490.6,18.953,-447.9,-10.43,893
491.15,19.001,-444.6,-9.89,894
491.7,19.049,-436.3,-8.52,895
492.25,19.093,-442.5,-9.54,896
492.8,19.139,-441.3,-9.34,897
493.35,19.185,-432,-7.81,898
493.9,19.226,-442.6,-9.55,899
494.45,19.272,-438.7,-8.91,900
495,19.317,-445.1,-9.96,901
495.55,19.365,-440.2,-9.16,902
496.1,19.411,-443.8,-9.75,903
496.65,19.458,-443,-9.62,904
497.2,19.506,-446.5,-10.19,905
497.75,19.555,-441.5,-9.37,906
498.3,19.603,-446.5,-10.19,907
498.85,19.652,-444.9,-9.93,908
499.4,19.7,-438.9,-8.94,909
499.95,19.746,-438.3,-8.84,910
500.5,19.79,-436.4,-8.53,911
501.05,19.834,-442.4,-9.51,912
501.6,19.881,-448,-10.43,913
502.15,19.931,-444.2,-9.81,914
502.7,19.979,-441.7,-9.4,915
503.25,20.026,-439.5,-9.04,916
503.8,20.072,-442.1,-9.46,917
504.35,20.118,-437.5,-8.71,918
504.9,20.163,-444.1,-9.79,919
505.45,20.21,-440.6,-9.22,920
506,20.257,-442.5,-9.53,921
506.55,20.304,-443.5,-9.69,922
507.1,20.352,-443.7,-9.72,923
507.65,20.401,-446.5,-10.18,924
508.2,20.45,-438.8,-8.92,925
508.75,20.496,-438.3,-8.83,926
509.3,20.541,-441.2,-9.31,927
509.85,20.587,-442.3,-9.49,928
510.4,20.635,-443.3,-9.65,929
510.95,20.683,-443.2,-9.64,930
511.5,20.731,-439.5,-9.03,931
512.05,20.776,-441.5,-9.36,932
512.6,20.823,-441.8,-9.41,933
513.15,20.87,-442.2,-9.47,934
513.7,20.918,-441.7,-9.39,935
514.25,20.965,-446.3,-10.14,936
514.8,21.015,-440.9,-9.25,937
515.35,21.062,-442.5,-9.52,938
515.9,21.109,-437.8,-8.74,939
516.45,21.155,-439.7,-9.06,940
517,21.201,-445.6,-10.02,941
517.55,21.25,-445.7,-10.04,942
518.1,21.3,-440.6,-9.2,943
518.65,21.346,-436.9,-8.59,944
519.2,21.39,-432.8,-7.92,945
519.75,21.435,-446.1,-10.1,946
520.3,21.482,-443.7,-9.71,947
520.85,21.531,-438.8,-8.9,948
521.4,21.578,-443.3,-9.64,949
521.95,21.626,-446.2,-10.12,950
522.5,21.676,-442.9,-9.57,951
523.05,21.724,-439.2,-8.96,952
523.6,21.77,-437.7,-8.72,953
524.15,21.815,-436.2,-8.47,954
524.7,21.859,-442,-9.42,955
525.25,21.907,-440.3,-9.14,956
525.8,21.953,-443.1,-9.6,957
526.35,22.002,-442.2,-9.45,958
526.9,22.05,-444.4,-9.82,959
527.45,22.099,-445.4,-9.98,960
528,22.15,-443.5,-9.67,961
528.55,22.199,-438.3,-8.81,962
529.1,22.244,-445.8,-10.04,963
529.65,22.295,-445,-9.91,964
530.2,22.345,-435.6,-8.36,965
530.75,22.389,-440.3,-9.14,966
531.3,22.436,-442,-9.41,967
531.85,22.483,-437.9,-8.74,968
532.4,22.529,-440.8,-9.22,969
532.95,22.577,-445.1,-9.92,970
533.5,22.626,-439.5,-9,971
534.05,22.674,-445.5,-9.98,972
534.6,22.723,-441.7,-9.36,973
535.15,22.772,-443.3,-9.62,974
535.7,22.821,-441.9,-9.39,975
536.25,22.869,-444,-9.73,976
536.8,22.918,-442.9,-9.55,977
537.35,22.967,-440.2,-9.11,978
537.9,23.014,-436.1,-8.43,979
538.45,23.059,-438.6,-8.84,980
539,23.104,-434.9,-8.23,981
539.55,23.149,-439.5,-8.99,982
540.1,23.195,-440.7,-9.19,983
540.65,23.242,-438.3,-8.79,984
541.2,23.289,-447.2,-10.25,985
541.75,23.34,-441.8,-9.36,986
542.3,23.388,-439.3,-8.95,987
542.85,23.435,-441.3,-9.28,988
543.4,23.483,-437.7,-8.69,989
543.95,23.529,-438.9,-8.88,990
544.5,23.575,-439.9,-9.05,991
545.05,23.622,-437.4,-8.64,992
545.6,23.668,-439.3,-8.95,993
546.15,23.715,-441.4,-9.29,994
546.7,23.763,-441.8,-9.36,995
547.25,23.812,-448.1,-10.39,996
547.8,23.864,-445.4,-9.95,997
548.35,23.916,-443.4,-9.62,998
548.9,23.965,-442.8,-9.52,999
549.45,24.015,-449.3,-10.58,1000
550,24.069,-443.8,-9.68,1001
550.55,24.119,-442.1,-9.4,1002
551.1,24.168,-440,-9.05,1003
551.65,24.216,-439.7,-9,1004
552.2,24.263,-444.3,-9.76,1005
552.75,24.314,-441.7,-9.33,1006
553.3,24.363,-446.2,-10.07,1007
553.85,24.415,-446.4,-10.1,1008
554.4,24.467,-433.5,-7.98,1009
554.95,24.511,-439.7,-8.99,1010
555.5,24.558,-445.2,-9.9,1011
556.05,24.609,-447.1,-10.21,1012
556.6,24.662,-446.2,-10.06,1013
557.15,24.714,-445.6,-9.96,1014
557.7,24.766,-445.2,-9.89,1015
558.25,24.818,-443.1,-9.54,1016
558.8,24.868,-444.9,-9.84,1017
559.35,24.919,-442.2,-9.39,1018
559.9,24.969,-444.9,-9.83,1019
560.45,25.02,-445.6,-9.95,1020
561,25.072,-444.9,-9.83,1021
561.55,25.123,-442,-9.35,1022
562.1,25.173,-442,-9.35,1023
562.65,25.223,-447.2,-10.21,1024
563.2,25.276,-448.9,-10.48,1025
563.75,25.33,-447.9,-10.32,1026
564.3,25.384,-443.2,-9.54,1027
564.85,25.435,-445.2,-9.87,1028
565.4,25.487,-445,-9.84,1029
565.95,25.538,-444,-9.67,1030
566.5,25.589,-443.2,-9.54,1031
567.05,25.64,-441.8,-9.3,1032
567.6,25.69,-447.2,-10.19,1033
568.15,25.743,-446.2,-10.02,1034
568.7,25.795,-443.2,-9.53,1035
569.25,25.847,-448.9,-10.47,1036
569.8,25.9,-439.6,-8.93,1037
570.35,25.95,-443.7,-9.61,1038
570.9,26,-447.3,-10.2,1039
571.45,26.053,-439.9,-8.98,1040
572,26.103,-445.2,-9.85,1041
572.55,26.154,-445.9,-9.96,1042
573.1,26.207,-441.1,-9.17,1043
573.65,26.257,-448.6,-10.4,1044
574.2,26.311,-445.9,-9.96,1045
574.75,26.364,-440.2,-9.02,1046
575.3,26.413,-445.8,-9.94,1047
575.85,26.465,-442.2,-9.34,1048
576.4,26.516,-443.7,-9.59,1049
576.95,26.567,-446,-9.96,1050
577.5,26.62,-447.4,-10.19,1051
578.05,26.674,-446.9,-10.11,1052
578.6,26.727,-440.5,-9.05,1053
579.15,26.777,-443.1,-9.48,1054
579.7,26.828,-444.6,-9.72,1055
580.25,26.88,-447.1,-10.13,1056
580.8,26.933,-443.8,-9.59,1057
581.35,26.985,-444.8,-9.75,1058
581.9,27.037,-444.5,-9.7,1059
582.45,27.09,-445.9,-9.93,1060
583,27.142,-441.6,-9.22,1061
583.55,27.192,-439,-8.79,1062
584.1,27.24,-435.9,-8.28,1063
584.65,27.287,-439.3,-8.84,1064
585.2,27.333,-427.6,-6.91,1065
585.75,27.377,-441.8,-9.25,1066
586.3,27.425,-440.5,-9.03,1067
586.85,27.475,-438.4,-8.69,1068
587.4,27.523,-449.5,-10.51,1069
587.95,27.578,-441.2,-9.14,1070
588.5,27.628,-433.4,-7.86,1071
589.05,27.673,-432.5,-7.71,1072
589.6,27.717,-438,-8.61,1073
590.15,27.765,-440,-8.94,1074
590.7,27.814,-442.8,-9.4,1075
591.25,27.864,-436.6,-8.38,1076
591.8,27.912,-439.2,-8.81,1077
592.35,27.961,-445.7,-9.87,1078
592.9,28.014,-447.8,-10.22,1079
593.45,28.068,-441.3,-9.15,1080
594,28.119,-443,-9.42,1081
594.55,28.17,-446.1,-9.93,1082
595.1,28.224,-443,-9.42,1083
595.65,28.275,-438.7,-8.71,1084
596.2,28.324,-439.8,-8.89,1085
596.75,28.373,-435.6,-8.2,1086
597.3,28.419,-433.4,-7.84,1087
597.85,28.465,-438.6,-8.69,1088
598.4,28.512,-438.1,-8.61,1089
598.95,28.56,-438,-8.59,1090
599.5,28.608,-439.7,-8.87,1091
600.05,28.658,-443.3,-9.46,1092
600.6,28.709,-441.4,-9.14,1093
601.15,28.759,-440,-8.91,1094
601.7,28.809,-442.2,-9.27,1095
602.25,28.859,-436.6,-8.35,1096
602.8,28.908,-439.8,-8.88,1097
603.35,28.956,-436.2,-8.28,1098
603.9,29.004,-438.9,-8.72,1099
604.45,29.052,-436.1,-8.26,1100
605,29.099,-435.1,-8.1,1101
605.55,29.145,-435.9,-8.23,1102
606.1,29.192,-430.8,-7.39,1103
606.65,29.236,-438.2,-8.6,1104
607.2,29.283,-431.8,-7.55,1105
607.75,29.328,-434.1,-7.93,1106
608.3,29.375,-443.2,-9.42,1107
608.85,29.425,-439.9,-8.88,1108
609.4,29.474,-437.1,-8.42,1109
609.95,29.523,-436.7,-8.35,1110
610.5,29.57,-437.1,-8.42,1111
611.05,29.618,-436.6,-8.33,1112
611.6,29.665,-433.5,-7.82,1113
612.15,29.711,-436.8,-8.36,1114
612.7,29.758,-440.1,-8.9,1115
613.25,29.808,-445.7,-9.82,1116
613.8,29.862,-443.4,-9.44,1117
614.35,29.915,-443,-9.38,1118
614.9,29.967,-445.9,-9.85,1119
615.45,30.02,-437.1,-8.4,1120
616,30.071,-447,-10.03,1121
616.55,30.124,-442.3,-9.25,1122
617.1,30.177,-441.9,-9.19,1123
617.65,30.227,-436.6,-8.31,1124
618.2,30.277,-446.5,-9.94,1125
618.75,30.33,-438.4,-8.61,1126
619.3,30.38,-441.2,-9.06,1127
619.85,30.431,-442,-9.19,1128
620.4,30.483,-442,-9.19,1129
620.95,30.534,-442.6,-9.29,1130
621.5,30.586,-440.1,-8.88,1131
622.05,30.637,-440.1,-8.88,1132
622.6,30.687,-440.1,-8.87,1133
623.15,30.738,-440.1,-8.87,1134
623.7,30.788,-440.1,-8.87,1135
624.25,30.837,-432.2,-7.57,1136
624.8,30.884,-439,-8.69,1137
625.35,30.933,-439.5,-8.77,1138
625.9,30.983,-438,-8.52,1139
626.45,31.032,-444,-9.51,1140
627,31.085,-446.6,-9.93,1141
627.55,31.141,-442.7,-9.29,1142
628.1,31.194,-443.8,-9.47,1143
628.65,31.247,-447.3,-10.04,1144
629.2,31.303,-443.5,-9.42,1145
629.75,31.356,-440.4,-8.91,1146
630.3,31.408,-441.4,-9.07,1147
630.85,31.459,-440.4,-8.9,1148
631.4,31.511,-446.3,-9.87,1149
631.95,31.564,-440.5,-8.92,1150
632.5,31.618,-449.3,-10.36,1151
633.05,31.673,-442.2,-9.19,1152
633.6,31.725,-431.9,-7.5,1153
634.15,31.773,-436.8,-8.3,1154
634.7,31.821,-440.3,-8.88,1155
635.25,31.871,-438,-8.5,1156
635.8,31.919,-429.3,-7.07,1157
636.35,31.965,-435.7,-8.12,1158
636.9,32.012,-428.3,-6.9,1159
637.45,32.055,-437.4,-8.4,1160
638,32.104,-438.9,-8.64,1161
638.55,32.154,-436.9,-8.31,1162
639.1,32.203,-439.9,-8.81,1163
639.65,32.253,-436.2,-8.2,1164
640.2,32.302,-437.3,-8.38,1165
640.75,32.35,-433.7,-7.78,1166
641.3,32.399,-441.2,-9.02,1167
641.85,32.448,-434.7,-7.95,1168
642.4,32.496,-435.6,-8.09,1169
642.95,32.545,-442.1,-9.16,1170
643.5,32.598,-445.8,-9.77,1171
644.05,32.652,-443.9,-9.46,1172
644.6,32.707,-443,-9.31,1173
645.15,32.761,-446.5,-9.88,1174
645.7,32.816,-442.6,-9.24,1175
646.25,32.869,-438.7,-8.59,1176
646.8,32.921,-442.7,-9.25,1177
647.35,32.973,-439.6,-8.74,1178
647.9,33.024,-436.2,-8.18,1179
648.45,33.073,-435.3,-8.03,1180
649,33.121,-434.7,-7.93,1181
649.55,33.168,-432.3,-7.53,1182
650.1,33.215,-435.5,-8.06,1183
650.65,33.262,-433.7,-7.76,1184
651.2,33.309,-432,-7.48,1185
651.75,33.355,-437,-8.3,1186
652.3,33.404,-435.5,-8.06,1187
652.85,33.453,-438,-8.47,1188
653.4,33.502,-436,-8.14,1189
653.95,33.551,-435.9,-8.12,1190
654.5,33.599,-433.5,-7.72,1191
655.05,33.648,-443.2,-9.32,1192
655.6,33.699,-435.8,-8.1,1193
656.15,33.75,-439.9,-8.77,1194
656.7,33.801,-444.5,-9.53,1195
657.25,33.856,-444.5,-9.53,1196
657.8,33.911,-444.5,-9.53,1197
658.35,33.966,-444.5,-9.52,1198
658.9,34.021,-444.5,-9.52,1199
659.45,34.077,-442.3,-9.16,1200
660,34.13,-438.5,-8.53,1201
660.55,34.181,-442.1,-9.12,1202
661.1,34.234,-441.2,-8.97,1203
661.65,34.287,-444.9,-9.58,1204
662.2,34.342,-441.9,-9.08,1205
662.75,34.395,-436.5,-8.19,1206
663.3,34.445,-435.5,-8.03,1207
663.85,34.494,-438.7,-8.55,1208
664.4,34.545,-431.6,-7.39,1209
664.95,34.591,-437.4,-8.34,1210
665.5,34.64,-433.8,-7.75,1211
666.05,34.688,-433.4,-7.68,1212
666.6,34.736,-438.3,-8.48,1213
667.15,34.785,-431.4,-7.35,1214
667.7,34.832,-431.7,-7.4,1215
668.25,34.879,-437.6,-8.37,1216
668.8,34.928,-435.6,-8.04,1217
669.35,34.977,-433.5,-7.69,1218
669.9,35.024,-429.5,-7.03,1219
670.45,35.069,-433.5,-7.69,1220
671,35.117,-437.9,-8.41,1221
671.55,35.167,-433.7,-7.72,1222
672.1,35.214,-429.9,-7.09,1223
672.65,35.26,-432.5,-7.52,1224
673.2,35.307,-436.5,-8.18,1225
673.75,35.356,-436.9,-8.24,1226
674.3,35.406,-435.8,-8.06,1227
674.85,35.454,-428.2,-6.81,1228
675.4,35.501,-438.6,-8.52,1229
675.95,35.551,-439.5,-8.67,1230
676.5,35.602,-434.3,-7.81,1231
677.05,35.65,-433.1,-7.61,1232
677.6,35.698,-434.8,-7.89,1233
678.15,35.746,-439.6,-8.68,1234
678.7,35.798,-436.6,-8.18,1235
679.25,35.848,-443,-9.24,1236
679.8,35.903,-435.3,-7.97,1237
680.35,35.952,-435.6,-8.02,1238
680.9,36.001,-436,-8.08,1239
681.45,36.051,-435.8,-8.05,1240
682,36.101,-442,-9.07,1241
682.55,36.154,-439.7,-8.69,1242
683.1,36.206,-438.8,-8.54,1243
683.65,36.258,-437.5,-8.32,1244
684.2,36.308,-434.6,-7.84,1245
684.75,36.357,-434.6,-7.84,1246
685.3,36.406,-436.1,-8.09,1247
685.85,36.456,-436.8,-8.2,1248
686.4,36.506,-435.9,-8.05,1249
686.95,36.555,-434.2,-7.77,1250
687.5,36.604,-438.3,-8.44,1251
688.05,36.655,-436.1,-8.08,1252
688.6,36.705,-435.3,-7.95,1253
689.15,36.755,-439.6,-8.66,1254
689.7,36.807,-440.7,-8.84,1255
690.25,36.859,-438.9,-8.54,1256
690.8,36.911,-436.7,-8.17,1257
691.35,36.961,-429.6,-7,1258
691.9,37.007,-427.3,-6.63,1259
692.45,37.051,-435.1,-7.91,1260
693,37.1,-434.9,-7.88,1261
693.55,37.149,-435,-7.89,1262
694.1,37.198,-427.3,-6.62,1263
694.65,37.244,-434.4,-7.79,1264
695.2,37.29,-428.6,-6.84,1265
695.75,37.337,-435.1,-7.91,1266
696.3,37.384,-428.6,-6.84,1267
696.85,37.431,-436.5,-8.14,1268
697.4,37.48,-428.7,-6.85,1269
697.95,37.525,-430.7,-7.18,1270
698.5,37.571,-423.8,-6.04,1271
699.05,37.613,-424.6,-6.18,1272
699.6,37.656,-425.2,-6.27,1273
700.15,37.697,-418.3,-5.14,1274
700.7,37.737,-426,-6.41,1275
701.25,37.779,-418.8,-5.22,1276
701.8,37.819,-415.4,-4.66,1277
702.35,37.858,-424.5,-6.16,1278
702.9,37.899,-430.6,-7.17,1279
703.45,37.945,-431,-7.23,1280
704,37.992,-434.8,-7.86,1281
704.55,38.039,-423.4,-5.98,1282
705.1,38.082,-420.5,-5.5,1283
705.65,38.124,-430.4,-7.13,1284
706.2,38.169,-431.1,-7.25,1285
706.75,38.215,-433.4,-7.63,1286
707.3,38.263,-422.5,-5.83,1287
707.85,38.306,-431.3,-7.28,1288
708.4,38.351,-425.3,-6.29,1289
708.95,38.395,-427,-6.57,1290
709.5,38.439,-429.8,-7.03,1291
710.05,38.484,-427.3,-6.62,1292
710.6,38.529,-425.9,-6.39,1293
711.15,38.572,-426,-6.41,1294
711.7,38.616,-425.6,-6.34,1295
712.25,38.66,-428.5,-6.82,1296
712.8,38.704,-430.7,-7.18,1297
713.35,38.751,-432.8,-7.53,1298
713.9,38.798,-424.4,-6.15,1299
714.45,38.842,-428.9,-6.89,1300
715,38.886,-427.1,-6.59,1301
715.55,38.931,-426.3,-6.46,1302
716.1,38.976,-434.3,-7.78,1303
716.65,39.023,-428.8,-6.87,1304
717.2,39.069,-423.2,-5.95,1305
717.75,39.111,-436,-8.05,1306
718.3,39.161,-434,-7.73,1307
718.85,39.211,-436.9,-8.2,1308
719.4,39.261,-436,-8.05,1309
719.95,39.312,-435.5,-7.97,1310
720.5,39.362,-436.9,-8.2,1311
721.05,39.413,-435.5,-7.97,1312
721.6,39.463,-435.9,-8.03,1313
722.15,39.515,-441.9,-9.02,1314
722.7,39.569,-443,-9.2,1315
723.25,39.625,-442.4,-9.1,1316
723.8,39.68,-436.8,-8.18,1317
724.35,39.732,-443.3,-9.24,1318
724.9,39.787,-434.7,-7.83,1319
725.45,39.838,-438.7,-8.48,1320
726,39.89,-434.2,-7.74,1321
726.55,39.94,-436.5,-8.12,1322
727.1,39.99,-430.9,-7.2,1323
727.65,40.039,-437.3,-8.25,1324
728.2,40.089,-434.2,-7.74,1325
728.75,40.138,-433.3,-7.59,1326
729.3,40.188,-439.6,-8.63,1327
729.85,40.241,-439,-8.53,1328
730.4,40.293,-438.3,-8.41,1329
730.95,40.345,-430.9,-7.19,1330
731.5,40.394,-433,-7.54,1331
732.05,40.441,-431.3,-7.26,1332
732.6,40.49,-439.1,-8.54,1333
733.15,40.543,-441.2,-8.89,1334
733.7,40.597,-440.2,-8.72,1335
734.25,40.651,-440.1,-8.7,1336
734.8,40.705,-440.8,-8.82,1337
735.35,40.759,-438.4,-8.42,1338
735.9,40.812,-436.7,-8.14,1339
736.45,40.865,-444.3,-9.39,1340
737,40.92,-436.8,-8.15,1341
737.55,40.972,-436,-8.02,1342
738.1,41.023,-434.5,-7.77,1343
738.65,41.073,-433.3,-7.57,1344
739.2,41.123,-439.4,-8.58,1345
739.75,41.174,-431.7,-7.31,1346
740.3,41.223,-426.5,-6.45,1347
740.85,41.269,-433.2,-7.55,1348
741.4,41.317,-433.4,-7.58,1349
741.95,41.366,-434.9,-7.83,1350
742.5,41.416,-439.4,-8.57,1351
743.05,41.469,-427.8,-6.66,1352
743.6,41.516,-441,-8.83,1353
744.15,41.569,-434.7,-7.79,1354
744.7,41.62,-440.4,-8.73,1355
745.25,41.674,-435.7,-7.95,1356
745.8,41.725,-437.3,-8.22,1357
746.35,41.777,-441.9,-8.97,1358
746.9,41.832,-438.2,-8.36,1359
747.45,41.885,-440.9,-8.8,1360
748,41.94,-440.5,-8.74,1361
748.55,41.995,-440.6,-8.75,1362
749.1,42.05,-442.5,-9.06,1363
749.65,42.106,-442.4,-9.04,1364
750.2,42.161,-437.4,-8.22,1365
750.75,42.215,-441.5,-8.89,1366
751.3,42.268,-433.2,-7.52,1367
751.85,42.319,-437.2,-8.18,1368
752.4,42.371,-438.3,-8.36,1369
752.95,42.423,-433.3,-7.54,1370
753.5,42.473,-433.4,-7.55,1371
754.05,42.522,-434.7,-7.77,1372
754.6,42.573,-438.9,-8.46,1373
755.15,42.625,-430.8,-7.12,1374
755.7,42.674,-439.3,-8.52,1375
756.25,42.726,-433.8,-7.61,1376
756.8,42.777,-435.8,-7.94,1377
757.35,42.827,-432.6,-7.41,1378
757.9,42.876,-428.6,-6.75,1379
758.45,42.922,-430.5,-7.07,1380
759,42.969,-430.2,-7.02,1381
759.55,43.017,-431.3,-7.2,1382
760.1,43.064,-427.8,-6.62,1383
760.65,43.11,-429.1,-6.83,1384
761.2,43.157,-433.2,-7.51,1385
761.75,43.205,-429.1,-6.83,1386
762.3,43.252,-436.4,-8.03,1387
762.85,43.303,-435.8,-7.93,1388
763.4,43.354,-426.9,-6.47,1389
763.95,43.4,-429.7,-6.93,1390
764.5,43.447,-432.3,-7.36,1391
765.05,43.495,-435.6,-7.9,1392
765.6,43.546,-436.6,-8.06,1393
766.15,43.597,-432.4,-7.37,1394
766.7,43.647,-433.6,-7.57,1395
767.25,43.696,-435.1,-7.81,1396
767.8,43.746,-431.5,-7.22,1397
768.35,43.796,-438.8,-8.42,1398
768.9,43.849,-440.4,-8.68,1399
769.45,43.902,-436.4,-8.02,1400
770,43.954,-435.9,-7.94,1401
770.55,44.005,-440.8,-8.74,1402
771.1,44.058,-440.3,-8.66,1403
771.65,44.112,-438.2,-8.31,1404
772.2,44.166,-441.3,-8.82,1405
772.75,44.221,-441,-8.77,1406
773.3,44.276,-439,-8.44,1407
773.85,44.33,-436.6,-8.04,1408
774.4,44.382,-430.5,-7.04,1409
774.95,44.431,-434.1,-7.63,1410
775.5,44.482,-440.8,-8.73,1411
776.05,44.535,-438.2,-8.3,1412
776.6,44.588,-439.2,-8.46,1413
777.15,44.641,-435.8,-7.9,1414
777.7,44.692,-433.8,-7.57,1415
778.25,44.743,-435.9,-7.92,1416
778.8,44.794,-435.2,-7.8,1417
779.35,44.845,-435.1,-7.78,1418
779.9,44.896,-433.8,-7.57,1419
780.45,44.946,-434.3,-7.65,1420
781,44.996,-434.9,-7.75,1421
781.55,45.046,-431.4,-7.17,1422
782.1,45.095,-431.1,-7.12,1423
782.65,45.143,-428.1,-6.62,1424
783.2,45.189,-430.6,-7.04,1425
783.75,45.237,-430.4,-7,1426
784.3,45.284,-429.9,-6.92,1427
784.85,45.331,-427.9,-6.59,1428
785.4,45.377,-429.1,-6.79,1429
785.95,45.424,-427.4,-6.51,1430
786.5,45.47,-430.2,-6.97,1431
787.05,45.517,-429.8,-6.9,1432
787.6,45.562,-419.9,-5.27,1433
788.15,45.606,-430.7,-7.05,1434
788.7,45.652,-425.5,-6.19,1435
789.25,45.697,-428.5,-6.69,1436
789.8,45.742,-420.9,-5.44,1437
790.35,45.785,-424.4,-6.01,1438
790.9,45.827,-420.4,-5.35,1439
791.45,45.87,-426,-6.28,1440
792,45.912,-413.7,-4.25,1441
792.55,45.951,-419.1,-5.14,1442
793.1,45.992,-424.5,-6.03,1443
793.65,46.036,-429.5,-6.86,1444
794.2,46.08,-423.1,-5.8,1445
794.75,46.124,-419.7,-5.24,1446
795.3,46.165,-426.6,-6.38,1447
795.85,46.21,-426.2,-6.31,1448
796.4,46.254,-425,-6.12,1449
796.95,46.298,-425.4,-6.18,1450
797.5,46.341,-422.5,-5.7,1451
798.05,46.384,-422.6,-5.72,1452
798.6,46.427,-417.3,-4.85,1453
799.15,46.466,-415.6,-4.57,1454
799.7,46.504,-412.3,-4.03,1455
800.25,46.542,-422.1,-5.64,1456
800.8,46.583,-421.3,-5.51,1457
801.35,46.624,-418.5,-5.05,1458
801.9,46.666,-422.3,-5.68,1459
802.45,46.707,-419.7,-5.25,1460
803,46.748,-427.8,-6.58,1461
803.55,46.794,-427.2,-6.49,1462
804.1,46.84,-429.5,-6.86,1463
804.65,46.885,-423.5,-5.88,1464
805.2,46.93,-426.9,-6.44,1465
805.75,46.975,-426.9,-6.44,1466
806.3,47.02,-425.3,-6.17,1467
806.85,47.065,-428.8,-6.75,1468
807.4,47.111,-429.1,-6.8,1469
807.95,47.158,-425.7,-6.24,1470
808.5,47.203,-426.9,-6.44,1471
809.05,47.246,-418,-4.97,1472
809.6,47.289,-428.3,-6.67,1473
810.15,47.334,-428.1,-6.64,1474
810.7,47.38,-431.2,-7.15,1475
811.25,47.428,-427.8,-6.59,1476
811.8,47.474,-430.1,-6.97,1477
812.35,47.522,-428.7,-6.73,1478
812.9,47.569,-430.3,-7,1479
813.45,47.616,-431.5,-7.2,1480
814,47.664,-425.7,-6.24,1481
814.55,47.71,-425.9,-6.27,1482
815.1,47.755,-431.1,-7.13,1483
815.65,47.803,-434.3,-7.66,1484
816.2,47.852,-428.2,-6.65,1485
816.75,47.9,-431.8,-7.25,1486
817.3,47.95,-442.1,-8.94,1487
817.85,48.005,-435.9,-7.92,1488
818.4,48.058,-436.5,-8.02,1489
818.95,48.111,-439.7,-8.55,1490
819.5,48.165,-436,-7.94,1491
820.05,48.217,-432.2,-7.31,1492
820.6,48.268,-436.3,-7.99,1493
821.15,48.318,-429.1,-6.8,1494
821.7,48.367,-428.1,-6.63,1495
822.25,48.414,-429.1,-6.8,1496
822.8,48.461,-432.2,-7.31,1497
823.35,48.51,-430.3,-7,1498
823.9,48.558,-439.5,-8.51,1499
824.45,48.613,-433.7,-7.56,1500
825,48.664,-429.9,-6.93,1501
825.55,48.712,-438.3,-8.32,1502
826.1,48.766,-437.4,-8.17,1503
826.65,48.819,-430.8,-7.08,1504
827.2,48.867,-430.4,-7.01,1505
827.75,48.915,-427.5,-6.54,1506
828.3,48.962,-433.8,-7.57,1507
828.85,49.012,-434.4,-7.67,1508
829.4,49.063,-433.9,-7.59,1509
829.95,49.115,-437.4,-8.17,1510
830.5,49.167,-432,-7.28,1511
831.05,49.218,-436.7,-8.05,1512
831.6,49.269,-434.2,-7.64,1513
832.15,49.322,-438.8,-8.39,1514
832.7,49.375,-432.5,-7.36,1515
833.25,49.426,-436.2,-7.96,1516
833.8,49.477,-431.3,-7.16,1517
834.35,49.526,-428.8,-6.75,1518
834.9,49.575,-433.6,-7.54,1519
835.45,49.624,-433.1,-7.45,1520
836,49.673,-424.9,-6.1,1521
836.55,49.721,-434.6,-7.7,1522
837.1,49.77,-434.4,-7.67,1523
837.65,49.82,-426.1,-6.3,1524
838.2,49.869,-434.4,-7.67,1525
838.75,49.918,-433.3,-7.49,1526
839.3,49.97,-437.5,-8.18,1527
839.85,50.022,-430.7,-7.06,1528
840.4,50.071,-428.2,-6.64,1529
840.95,50.118,-430.1,-6.96,1530
841.5,50.166,-427.3,-6.5,1531
842.05,50.212,-430.5,-7.02,1532
842.6,50.261,-433.6,-7.53,1533
843.15,50.311,-433.4,-7.5,1534
843.7,50.362,-430.7,-7.06,1535
844.25,50.411,-430.7,-7.05,1536
844.8,50.458,-422.1,-5.64,1537
845.35,50.503,-431.4,-7.17,1538
845.9,50.551,-433,-7.43,1539
846.45,50.602,-437.1,-8.11,1540
847,50.652,-425.8,-6.25,1541
847.55,50.701,-430.5,-7.02,1542
848.1,50.749,-433.3,-7.48,1543
848.65,50.798,-427.9,-6.59,1544
849.2,50.846,-433.4,-7.5,1545
849.75,50.896,-432.6,-7.37,1546
850.3,50.945,-428.5,-6.69,1547
850.85,50.993,-428.6,-6.71,1548
851.4,51.041,-435.5,-7.84,1549
851.95,51.092,-432.7,-7.38,1550
852.5,51.143,-432.7,-7.38,1551
853.05,51.193,-431.7,-7.22,1552
853.6,51.242,-430.1,-6.95,1553
854.15,51.291,-430.5,-7.02,1554
854.7,51.339,-429,-6.77,1555
855.25,51.387,-431.7,-7.21,1556
855.8,51.436,-428,-6.61,1557
856.35,51.483,-426.9,-6.42,1558
856.9,51.528,-424.2,-5.98,1559
857.45,51.575,-432.9,-7.41,1560
858,51.622,-427.8,-6.57,1561
858.55,51.671,-432.5,-7.35,1562
859.1,51.719,-425,-6.11,1563
859.65,51.765,-428.2,-6.64,1564
860.2,51.811,-421.2,-5.49,1565
860.75,51.854,-429.2,-6.81,1566
861.3,51.901,-425.9,-6.26,1567
861.85,51.947,-424.1,-5.97,1568
862.4,51.99,-415.9,-4.62,1569
862.95,52.032,-426.5,-6.36,1570
863.5,52.075,-419.7,-5.24,1571
864.05,52.117,-425.7,-6.23,1572
864.6,52.163,-432,-7.27,1573
865.15,52.212,-426.2,-6.32,1574
865.7,52.258,-429.5,-6.86,1575
866.25,52.305,-426.2,-6.32,1576
866.8,52.352,-428.8,-6.75,1577
867.35,52.398,-424.7,-6.07,1578
867.9,52.443,-422.2,-5.66,1579
868.45,52.488,-430.6,-7.04,1580
869,52.535,-424.1,-5.97,1581
869.55,52.58,-426.4,-6.35,1582
870.1,52.625,-419.9,-5.28,1583
870.65,52.668,-428.6,-6.72,1584
871.2,52.713,-424.9,-6.11,1585
871.75,52.757,-415.8,-4.61,1586
872.3,52.799,-424.9,-6.11,1587
872.85,52.843,-425.3,-6.18,1588
873.4,52.888,-428,-6.62,1589
873.95,52.935,-429.2,-6.82,1590
874.5,52.982,-426.2,-6.33,1591
875.05,53.026,-413.6,-4.25,1592
875.6,53.067,-422.7,-5.75,1593
876.15,53.11,-425.3,-6.18,1594
876.7,53.153,-418.6,-5.08,1595
877.25,53.195,-420.6,-5.41,1596
877.8,53.237,-418.3,-5.03,1597
878.35,53.278,-419.2,-5.18,1598
878.9,53.318,-417.8,-4.95,1599
879.45,53.359,-417.6,-4.92,1600
880,53.399,-418,-4.99,1601
880.55,53.44,-419.8,-5.29,1602
881.1,53.482,-425.2,-6.18,1603
881.65,53.526,-425.9,-6.3,1604
882.2,53.571,-424.6,-6.08,1605
882.75,53.617,-431.3,-7.19,1606
883.3,53.666,-429.4,-6.87,1607
883.85,53.714,-428.1,-6.66,1608
884.4,53.761,-421.3,-5.54,1609
884.95,53.804,-425.6,-6.25,1610
885.5,53.848,-421.3,-5.54,1611
886.05,53.893,-427.2,-6.52,1612
886.6,53.938,-425.6,-6.25,1613
887.15,53.984,-428.1,-6.67,1614
887.7,54.031,-427.1,-6.5,1615
888.25,54.078,-430,-6.98,1616
888.8,54.125,-422,-5.66,1617
889.35,54.169,-423.8,-5.96,1618
889.9,54.213,-423,-5.83,1619
890.45,54.256,-420.5,-5.42,1620
891,54.301,-430.3,-7.04,1621
891.55,54.347,-429.5,-6.9,1622
892.1,54.396,-429.2,-6.86,1623
892.65,54.445,-432.5,-7.4,1624
893.2,54.495,-432.5,-7.4,1625
893.75,54.544,-428.8,-6.79,1626
894.3,54.594,-433.8,-7.62,1627
894.85,54.645,-435.5,-7.9,1628
895.4,54.697,-432.3,-7.37,1629
895.95,54.748,-432.4,-7.39,1630
896.5,54.797,-423.6,-5.94,1631
897.05,54.843,-427.6,-6.6,1632
897.6,54.89,-428.6,-6.76,1633
898.15,54.937,-424.8,-6.14,1634
898.7,54.982,-422.7,-5.79,1635
899.25,55.027,-429.6,-6.93,1636
899.8,55.074,-428.9,-6.82,1637
900.35,55.122,-424.2,-6.04,1638
900.9,55.168,-430.3,-7.05,1639
901.45,55.216,-429.1,-6.85,1640
902,55.264,-426,-6.34,1641
902.55,55.31,-427.5,-6.59,1642
903.1,55.358,-434.9,-7.81,1643
903.65,55.409,-428.7,-6.79,1644
904.2,55.458,-428.6,-6.77,1645
904.75,55.505,-428.8,-6.81,1646
905.3,55.554,-431.1,-7.19,1647
905.85,55.603,-432.2,-7.37,1648
906.4,55.654,-435.5,-7.91,1649
906.95,55.707,-438,-8.33,1650
907.5,55.761,-431.9,-7.32,1651
908.05,55.813,-432.1,-7.35,1652
908.6,55.864,-436.8,-8.13,1653
909.15,55.918,-438.3,-8.38,1654
909.7,55.971,-428.4,-6.75,1655
910.25,56.023,-440.1,-8.67,1656
910.8,56.076,-432.2,-7.37,1657
911.35,56.128,-431.7,-7.29,1658
911.9,56.178,-427,-6.52,1659
912.45,56.226,-429.2,-6.88,1660
913,56.275,-436.5,-8.08,1661
913.55,56.326,-427.7,-6.63,1662
914.1,56.376,-429.9,-7,1663
914.65,56.424,-430.5,-7.1,1664
915.2,56.474,-431.2,-7.21,1665
915.75,56.523,-427.7,-6.64,1666
916.3,56.571,-426.6,-6.46,1667
916.85,56.618,-433.6,-7.61,1668
917.4,56.669,-427,-6.52,1669
917.95,56.716,-431,-7.18,1670
918.5,56.766,-426,-6.36,1671
919.05,56.812,-424.6,-6.13,1672
919.6,56.858,-427.2,-6.56,1673
920.15,56.903,-419.7,-5.32,1674
920.7,56.948,-428.8,-6.83,1675
921.25,56.994,-425.3,-6.25,1676
921.8,57.041,-426,-6.37,1677
922.35,57.086,-422.1,-5.72,1678
922.9,57.13,-418.9,-5.2,1679
923.45,57.172,-423.7,-5.99,1680
924,57.216,-417.5,-4.97,1681
924.55,57.258,-421.9,-5.7,1682
925.1,57.3,-421.2,-5.58,1683
925.65,57.346,-434.6,-7.79,1684
926.2,57.395,-427.7,-6.66,1685
926.75,57.443,-423.5,-5.97,1686
927.3,57.488,-422.2,-5.75,1687
927.85,57.532,-426.3,-6.43,1688
928.4,57.578,-427.4,-6.61,1689
928.95,57.625,-422.6,-5.83,1690
929.5,57.669,-419,-5.23,1691
930.05,57.713,-429.4,-6.95,1692
930.6,57.76,-430.7,-7.16,1693
931.15,57.809,-428.6,-6.82,1694
931.7,57.857,-425,-6.23,1695
932.25,57.904,-424.8,-6.2,1696
932.8,57.949,-423.4,-5.97,1697
933.35,57.994,-424.2,-6.1,1698
933.9,58.039,-419,-5.25,1699
934.45,58.081,-427,-6.57,1700
935,58.127,-419.2,-5.28,1701
935.55,58.17,-423.4,-5.98,1702
936.1,58.212,-413.9,-4.42,1703
936.65,58.254,-423.7,-6.03,1704
937.2,58.297,-417.6,-5.03,1705
937.75,58.338,-416.9,-4.92,1706
938.3,58.379,-422.6,-5.86,1707
938.85,58.422,-421.4,-5.66,1708
939.4,58.467,-426,-6.42,1709
939.95,58.511,-416.3,-4.83,1710
940.5,58.552,-414.9,-4.6,1711
941.05,58.592,-418.5,-5.19,1712
941.6,58.633,-420,-5.44,1713
942.15,58.676,-421.2,-5.64,1714
942.7,58.718,-416.6,-4.89,1715
943.25,58.76,-422.9,-5.93,1716
943.8,58.803,-422.1,-5.8,1717
944.35,58.847,-423.8,-6.08,1718
944.9,58.892,-422,-5.78,1719
945.45,58.936,-422.7,-5.9,1720
946,58.98,-422.1,-5.8,1721
946.55,59.024,-421.5,-5.71,1722
947.1,59.067,-419.7,-5.41,1723
947.65,59.11,-419.4,-5.36,1724
948.2,59.153,-429.8,-7.08,1725
948.75,59.201,-414.3,-4.53,1726
949.3,59.242,-424.2,-6.16,1727
949.85,59.286,-424.8,-6.26,1728
950.4,59.333,-431.1,-7.3,1729
950.95,59.381,-423.8,-6.1,1730
951.5,59.426,-416,-4.82,1731
952.05,59.469,-424.9,-6.28,1732
952.6,59.514,-426.5,-6.55,1733
953.15,59.56,-424.3,-6.19,1734
953.7,59.606,-422.2,-5.85,1735
954.25,59.65,-430.1,-7.15,1736
954.8,59.7,-428.6,-6.9,1737
955.35,59.747,-419,-5.32,1738
955.9,59.791,-422.5,-5.9,1739
956.45,59.835,-422.6,-5.92,1740
957,59.879,-421.4,-5.72,1741
957.55,59.924,-430.8,-7.27,1742
958.1,59.972,-425.2,-6.35,1743
958.65,60.02,-427.8,-6.78,1744
959.2,60.068,-427.1,-6.67,1745
959.75,60.116,-430.6,-7.25,1746
960.3,60.166,-431.1,-7.33,1747
960.85,60.216,-428.6,-6.92,1748
961.4,60.265,-427,-6.66,1749
961.95,60.313,-432,-7.48,1750
962.5,60.364,-428.9,-6.97,1751
963.05,60.414,-424.5,-6.25,1752
963.6,60.46,-430.6,-7.25,1753
964.15,60.51,-427.4,-6.73,1754
964.7,60.558,-423.4,-6.07,1755
965.25,60.603,-421.7,-5.79,1756
965.8,60.649,-430.4,-7.22,1757
966.35,60.697,-428.5,-6.91,1758
966.9,60.747,-430.5,-7.24,1759
967.45,60.797,-432.2,-7.52,1760
968,60.847,-427.1,-6.68,1761
968.55,60.896,-425.7,-6.45,1762
969.1,60.944,-429.8,-7.13,1763
969.65,60.994,-433.7,-7.77,1764
970.2,61.045,-425.5,-6.43,1765
970.75,61.094,-429.8,-7.13,1766
971.3,61.142,-428.1,-6.86,1767
971.85,61.192,-429.5,-7.09,1768
972.4,61.242,-430.9,-7.32,1769
972.95,61.292,-431.3,-7.39,1770
973.5,61.343,-429,-7.01,1771
974.05,61.394,-435.7,-8.11,1772
974.6,61.447,-432.6,-7.6,1773
975.15,61.499,-428.7,-6.96,1774
975.7,61.55,-431.6,-7.44,1775
976.25,61.601,-433.6,-7.77,1776
976.8,61.654,-432.1,-7.52,1777
977.35,61.706,-430.5,-7.26,1778
977.9,61.757,-432.7,-7.62,1779
978.45,61.809,-433.6,-7.77,1780
979,61.863,-437.2,-8.37,1781
979.55,61.919,-436.3,-8.22,1782
980.1,61.974,-440.7,-8.94,1783
980.65,62.033,-436,-8.17,1784
981.2,62.089,-434.6,-7.94,1785
981.75,62.144,-435.3,-8.05,1786
982.3,62.198,-436.1,-8.19,1787
982.85,62.254,-438.6,-8.6,1788
983.4,62.312,-440.2,-8.86,1789
983.95,62.371,-438.4,-8.57,1790
984.5,62.428,-430.4,-7.25,1791
985.05,62.48,-440.5,-8.91,1792
985.6,62.539,-440.4,-8.89,1793
986.15,62.598,-440.1,-8.85,1794
986.7,62.657,-438.2,-8.53,1795
987.25,62.715,-436.4,-8.24,1796
987.8,62.771,-442.1,-9.17,1797
988.35,62.832,-443.9,-9.47,1798
988.9,62.894,-438.6,-8.6,1799
989.45,62.953,-437.5,-8.41,1800
990,63.012,-448.3,-10.19,1801
990.55,63.079,-442.7,-9.27,1802
991.1,63.141,-442.4,-9.22,1803
991.65,63.203,-443.6,-9.41,1804
992.2,63.265,-440.8,-8.95,1805
992.75,63.326,-442.9,-9.3,1806
993.3,63.388,-441.4,-9.05,1807
993.85,63.448,-440.1,-8.83,1808
994.4,63.508,-438,-8.49,1809
994.95,63.564,-427,-6.68,1810
995.5,63.615,-427.9,-6.82,1811
996.05,63.666,-437.1,-8.34,1812
996.6,63.72,-426.7,-6.63,1813
997.15,63.771,-440.3,-8.87,1814
997.7,63.829,-434.3,-7.88,1815
998.25,63.884,-434.2,-7.86,1816
998.8,63.938,-429.7,-7.12,1817
999.35,63.989,-431.7,-7.45,1818
999.9,64.042,-438.3,-8.53,1819
1000.45,64.1,-441.6,-9.08,1820
1001,64.16,-437.4,-8.38,1821
1001.55,64.218,-439.8,-8.78,1822
1002.1,64.278,-443.1,-9.32,1823
1002.65,64.34,-439.4,-8.71,1824
1003.2,64.399,-436.6,-8.24,1825
1003.75,64.457,-440.1,-8.82,1826
1004.3,64.516,-441.9,-9.11,1827
1004.85,64.577,-437.6,-8.4,1828
1005.4,64.635,-442.7,-9.24,1829
1005.95,64.697,-437,-8.3,1830
1006.5,64.756,-443.3,-9.34,1831
1007.05,64.817,-441.3,-9.01,1832
1007.6,64.879,-440.2,-8.82,1833
1008.15,64.939,-440.6,-8.89,1834
1008.7,64.998,-433.5,-7.72,1835
1009.25,65.054,-433.5,-7.72,1836
1009.8,65.111,-446,-9.77,1837
1010.35,65.173,-437.4,-8.36,1838
1010.9,65.232,-441.5,-9.03,1839
1011.45,65.293,-439.3,-8.67,1840
1012,65.353,-442.2,-9.14,1841
1012.55,65.415,-443.9,-9.42,1842
1013.1,65.479,-440.1,-8.79,1843
1013.65,65.539,-444.8,-9.56,1844
1014.2,65.603,-438.1,-8.46,1845
1014.75,65.663,-441.4,-9,1846
1015.3,65.724,-443.6,-9.36,1847
1015.85,65.788,-445,-9.59,1848
1016.4,65.852,-440.1,-8.78,1849
1016.95,65.914,-443.2,-9.29,1850
1017.5,65.977,-445,-9.58,1851
1018.05,66.042,-444.4,-9.48,1852
1018.6,66.106,-442.5,-9.17,1853
1019.15,66.17,-446.4,-9.81,1854
1019.7,66.236,-442.7,-9.2,1855
1020.25,66.299,-442.2,-9.11,1856
1020.8,66.362,-440.5,-8.83,1857
1021.35,66.423,-441.8,-9.04,1858
1021.9,66.485,-434.6,-7.85,1859
1022.45,66.541,-445.9,-9.71,1860
1023,66.606,-439.6,-8.67,1861
1023.55,66.667,-438.3,-8.46,1862
1024.1,66.727,-442.9,-9.21,1863
1024.65,66.79,-443,-9.23,1864
1025.2,66.853,-438.6,-8.5,1865
1025.75,66.913,-441.7,-9.01,1866
1026.3,66.976,-445.4,-9.61,1867
1026.85,67.041,-440.6,-8.82,1868
1027.4,67.103,-444.1,-9.39,1869
1027.95,67.167,-443.3,-9.26,1870
1028.5,67.231,-444.4,-9.44,1871
1029.05,67.296,-440.9,-8.86,1872
1029.6,67.358,-441.2,-8.9,1873
1030.15,67.421,-444.2,-9.4,1874
1030.7,67.485,-440.5,-8.78,1875
1031.25,67.546,-434.6,-7.81,1876
1031.8,67.604,-442.5,-9.11,1877
1032.35,67.666,-442.6,-9.12,1878
1032.9,67.729,-443.8,-9.32,1879
1033.45,67.793,-430.5,-7.12,1880
1034,67.848,-441.1,-8.87,1881
1034.55,67.908,-439.5,-8.6,1882
1035.1,67.969,-437.5,-8.27,1883
1035.65,68.029,-442.3,-9.06,1884
1036.2,68.091,-445.8,-9.63,1885
1036.75,68.158,-445.1,-9.51,1886
1037.3,68.224,-443.9,-9.31,1887
1037.85,68.289,-434.7,-7.79,1888
1038.4,68.346,-436.2,-8.04,1889
1038.95,68.403,-435.5,-7.92,1890
1039.5,68.46,-433.5,-7.59,1891
1040.05,68.517,-436.9,-8.15,1892
1040.6,68.574,-434.6,-7.77,1893
1041.15,68.631,-439.7,-8.6,1894
1041.7,68.692,-436.9,-8.14,1895
1042.25,68.751,-444.7,-9.42,1896
1042.8,68.816,-441.9,-8.96,1897
1043.35,68.879,-441.7,-8.92,1898
1043.9,68.943,-446.5,-9.71,1899
1044.45,69.009,-441.3,-8.85,1900
1045,69.074,-446.3,-9.67,1901
1045.55,69.141,-440.7,-8.75,1902
1046.1,69.204,-443.6,-9.22,1903
1046.65,69.268,-442.2,-8.99,1904
1047.2,69.332,-441.6,-8.89,1905
1047.75,69.394,-431.7,-7.26,1906
1048.3,69.45,-439.2,-8.49,1907
1048.85,69.511,-441.1,-8.8,1908
1049.4,69.573,-438.3,-8.34,1909
1049.95,69.632,-429.6,-6.91,1910
1050.5,69.686,-433.7,-7.58,1911
1051.05,69.741,-431.8,-7.27,1912
1051.6,69.796,-435.9,-7.94,1913
1052.15,69.854,-436.7,-8.07,1914
1052.7,69.913,-433.2,-7.49,1915
1053.25,69.969,-434.4,-7.69,1916
1053.8,70.025,-432.3,-7.34,1917
1054.35,70.081,-434.6,-7.72,1918
1054.9,70.137,-429,-6.79,1919
1055.45,70.19,-428.2,-6.66,1920
1056,70.241,-433.6,-7.55,1921
1056.55,70.296,-425.9,-6.28,1922
1057.1,70.347,-428.4,-6.69,1923
1057.65,70.399,-427.9,-6.61,1924
1058.2,70.45,-426.7,-6.41,1925
1058.75,70.5,-419.4,-5.2,1926
1059.3,70.546,-424.5,-6.04,1927
1059.85,70.594,-421.9,-5.61,1928
1060.4,70.641,-422,-5.63,1929
1060.95,70.688,-418.5,-5.05,1930
1061.5,70.733,-421.2,-5.5,1931
1062.05,70.779,-421.4,-5.53,1932
1062.6,70.826,-424.1,-5.98,1933
1063.15,70.873,-420.7,-5.41,1934
1063.7,70.922,-434.7,-7.72,1935
1064.25,70.976,-432,-7.27,1936
1064.8,71.03,-419.7,-5.25,1937
1065.35,71.078,-430.9,-7.09,1938
1065.9,71.13,-426.8,-6.41,1939
1066.45,71.182,-425.6,-6.21,1940
1067,71.231,-424.4,-6.01,1941
1067.55,71.28,-424.6,-6.04,1942
1068.1,71.33,-430.7,-7.05,1943
1068.65,71.383,-431.6,-7.19,1944
1069.2,71.438,-429.1,-6.78,1945
1069.75,71.491,-429.7,-6.88,1946
1070.3,71.544,-423.5,-5.85,1947
1070.85,71.592,-428.7,-6.71,1948
1071.4,71.645,-429.5,-6.84,1949
1071.95,71.697,-428.4,-6.65,1950
1072.5,71.75,-430.5,-7,1951
1073.05,71.804,-429.9,-6.9,1952
1073.6,71.857,-428.1,-6.6,1953
1074.15,71.91,-431.1,-7.09,1954
1074.7,71.964,-432.3,-7.28,1955
1075.25,72.019,-430.2,-6.94,1956
1075.8,72.074,-437,-8.05,1957
1076.35,72.132,-430.9,-7.05,1958
1076.9,72.187,-434.2,-7.59,1959
1077.45,72.244,-432.5,-7.3,1960
1078,72.301,-438.2,-8.24,1961
1078.55,72.363,-442.2,-8.89,1962
1079.1,72.426,-436.2,-7.9,1963
1079.65,72.486,-437.7,-8.14,1964
1080.2,72.547,-438.8,-8.32,1965
1080.75,72.608,-438,-8.19,1966
1081.3,72.669,-434.8,-7.66,1967
1081.85,72.727,-434.5,-7.6,1968
1082.4,72.785,-434.7,-7.63,1969
1082.95,72.843,-433.4,-7.42,1970
1083.5,72.899,-431.9,-7.17,1971
1084.05,72.956,-434.9,-7.66,1972
1084.6,73.012,-428.4,-6.58,1973
1085.15,73.066,-430.3,-6.89,1974
1085.7,73.119,-428,-6.51,1975
1086.25,73.172,-427.6,-6.45,1976
1086.8,73.225,-434.3,-7.55,1977
1087.35,73.281,-425.9,-6.16,1978
1087.9,73.333,-431.6,-7.1,1979
1088.45,73.387,-427.7,-6.45,1980
1089,73.44,-433.4,-7.39,1981
1089.55,73.495,-422.1,-5.53,1982
1090.1,73.545,-430.5,-6.91,1983
1090.65,73.598,-426.4,-6.23,1984
1091.2,73.65,-426.4,-6.23,1985
1091.75,73.701,-425.7,-6.11,1986
1092.3,73.752,-428.8,-6.62,1987
1092.85,73.804,-425.3,-6.04,1988
1093.4,73.854,-424.9,-5.97,1989
1093.95,73.903,-414.2,-4.21,1990
1094.5,73.947,-421.4,-5.39,1991
1095.05,73.994,-422.2,-5.52,1992
1095.6,74.042,-422.4,-5.56,1993
1096.15,74.09,-418,-4.83,1994
1096.7,74.135,-423.3,-5.7,1995
1097.25,74.183,-416.1,-4.51,1996
1097.8,74.228,-419.4,-5.06,1997
1098.35,74.274,-424.3,-5.86,1998
1098.9,74.322,-418.6,-4.92,1999
1099.45,74.368,-420,-5.15,2000
1100,74.414,-418.9,-4.97,2001
1100.55,74.459,-415.9,-4.47,2002
1101.1,74.503,-410.1,-3.52,2003
1101.65,74.543,-416.9,-4.64,2004
1102.2,74.587,-413.5,-4.08,2005
1102.75,74.63,-415.7,-4.44,2006
1103.3,74.674,-422.7,-5.59,2007
1103.85,74.721,-420.9,-5.29,2008
1104.4,74.768,-420.7,-5.26,2009
1104.95,74.816,-423.5,-5.72,2010
1105.5,74.864,-421.2,-5.34,2011
1106.05,74.913,-425.9,-6.11,2012
1106.6,74.962,-420.3,-5.19,2013
1107.15,75.011,-429.3,-6.67,2014
1107.7,75.063,-426.6,-6.22,2015
1108.25,75.114,-424.4,-5.86,2016
1108.8,75.165,-424.2,-5.82,2017
1109.35,75.215,-425.2,-5.98,2018
1109.9,75.265,-425.9,-6.1,2019
1110.45,75.316,-425.3,-5.99,2020
1111,75.368,-429.1,-6.62,2021
1111.55,75.421,-429.4,-6.67,2022
1112.1,75.474,-426.7,-6.22,2023
1112.65,75.527,-431.2,-6.96,2024
1113.2,75.582,-428.6,-6.52,2025
1113.75,75.636,-434,-7.41,2026
1114.3,75.693,-430.2,-6.78,2027
1114.85,75.749,-435.2,-7.6,2028
1115.4,75.808,-437.3,-7.94,2029
1115.95,75.868,-434.2,-7.43,2030
1116.5,75.926,-430.2,-6.77,2031
1117.05,75.982,-431.6,-6.99,2032
1117.6,76.038,-427.9,-6.38,2033
1118.15,76.091,-427.5,-6.31,2034
1118.7,76.144,-434.8,-7.51,2035
1119.25,76.202,-431.2,-6.91,2036
1119.8,76.258,-430.2,-6.75,2037
1120.35,76.312,-426.3,-6.1,2038
1120.9,76.365,-427.4,-6.28,2039
1121.45,76.419,-438.4,-8.09,2040
1122,76.478,-425.7,-5.99,2041
1122.55,76.531,-431.7,-6.98,2042
1123.1,76.587,-426.4,-6.1,2043
1123.65,76.639,-428.1,-6.38,2044
1124.2,76.692,-433,-7.18,2045
1124.75,76.749,-431.6,-6.95,2046
1125.3,76.806,-429.8,-6.65,2047
1125.85,76.861,-431.3,-6.89,2048
1126.4,76.916,-427.2,-6.21,2049
1126.95,76.969,-426.3,-6.06,2050
1127.5,77.021,-426.1,-6.03,2051
1128.05,77.073,-426.7,-6.12,2052
1128.6,77.125,-430.7,-6.78,2053
1129.15,77.179,-420.9,-5.16,2054
1129.7,77.229,-428.3,-6.38,2055
1130.25,77.281,-424.6,-5.77,2056
1130.8,77.332,-424,-5.66,2057
1131.35,77.382,-427.9,-6.31,2058
1131.9,77.435,-432.6,-7.08,2059
1132.45,77.492,-428.7,-6.43,2060
1133,77.546,-428.9,-6.46,2061
1133.55,77.601,-432.4,-7.04,2062
1134.1,77.658,-432.5,-7.05,2063
1134.65,77.715,-431.1,-6.81,2064
1135.2,77.77,-428.5,-6.38,2065
1135.75,77.825,-430.4,-6.69,2066
1136.3,77.88,-428.9,-6.44,2067
1136.85,77.935,-429.9,-6.6,2068
1137.4,77.989,-425.9,-5.94,2069
1137.95,78.041,-427.5,-6.2,2070
1138.5,78.094,-430.1,-6.63,2071
1139.05,78.149,-424.4,-5.69,2072
1139.6,78.2,-424.8,-5.75,2073
1140.15,78.252,-434.8,-7.4,2074
1140.7,78.31,-430.2,-6.64,2075
1141.25,78.364,-421.8,-5.25,2076
1141.8,78.415,-424,-5.61,2077
1142.35,78.465,-427.1,-6.12,2078
1142.9,78.518,-427.2,-6.13,2079
1143.45,78.57,-422.4,-5.34,2080
1144,78.62,-424.4,-5.67,2081
1144.55,78.67,-423.1,-5.45,2082
1145.1,78.719,-419.9,-4.92,2083
1145.65,78.767,-421,-5.1,2084
1146.2,78.817,-428.4,-6.32,2085
1146.75,78.868,-422.9,-5.41,2086
1147.3,78.919,-424.3,-5.64,2087
1147.85,78.969,-424.5,-5.67,2088
1148.4,79.022,-433.5,-7.15,2089
1148.95,79.076,-420.6,-5.02,2090
1149.5,79.127,-426.9,-6.06,2091
1150.05,79.178,-421.3,-5.13,2092
1150.6,79.228,-428.2,-6.27,2093
1151.15,79.28,-417.1,-4.44,2094
1151.7,79.327,-419.8,-4.88,2095
1152.25,79.374,-419.1,-4.76,2096
1152.8,79.421,-424.1,-5.59,2097
1153.35,79.47,-420.3,-4.96,2098
1153.9,79.52,-428.4,-6.29,2099
1154.45,79.571,-418.8,-4.71,2100
1155,79.621,-426.6,-5.99,2101
1155.55,79.67,-416.1,-4.26,2102
1156.1,79.716,-414.9,-4.06,2103
1156.65,79.762,-424.1,-5.57,2104
1157.2,79.81,-421.4,-5.13,2105
1157.75,79.86,-423.3,-5.44,2106
1158.3,79.91,-425.3,-5.77,2107
1158.85,79.961,-423.4,-5.45,2108
1159.4,80.011,-419.8,-4.86,2109
1159.95,80.059,-420.2,-4.92,2110
1160.5,80.107,-420.1,-4.9,2111
1161.05,80.153,-413.4,-3.8,2112
1161.6,80.198,-426.5,-5.96,2113
1162.15,80.249,-418.4,-4.62,2114
1162.7,80.297,-423.1,-5.39,2115
1163.25,80.346,-416.9,-4.37,2116
1163.8,80.392,-420.2,-4.91,2117
1164.35,80.44,-422.3,-5.26,2118
1164.9,80.489,-420.8,-5.01,2119
1165.45,80.537,-421,-5.04,2120
1166,80.586,-419.9,-4.86,2121
1166.55,80.633,-417,-4.38,2122
1167.1,80.679,-418.7,-4.66,2123
1167.65,80.726,-421.6,-5.14,2124
1168.2,80.774,-417.7,-4.49,2125
1168.75,80.821,-418.9,-4.69,2126
1169.3,80.869,-423.9,-5.52,2127
1169.85,80.918,-419.2,-4.74,2128
1170.4,80.966,-423.8,-5.5,2129
1170.95,81.016,-422.5,-5.28,2130
1171.5,81.065,-419.1,-4.72,2131
1172.05,81.114,-423.8,-5.49,2132
1172.6,81.164,-424.6,-5.63,2133
1173.15,81.215,-421.1,-5.05,2134
1173.7,81.264,-418.7,-4.65,2135
1174.25,81.31,-414.2,-3.91,2136
1174.8,81.355,-416.9,-4.35,2137
1175.35,81.401,-422.4,-5.26,2138
1175.9,81.45,-422.1,-5.21,2139
1176.45,81.499,-417,-4.37,2140
1177,81.545,-417,-4.37,2141
1177.55,81.591,-417,-4.37,2142
1178.1,81.637,-419.6,-4.8,2143
1178.65,81.683,-406.6,-2.65,2144
1179.2,81.725,-415.6,-4.14,2145
1179.75,81.767,-411,-3.38,2146
1180.3,81.81,-416,-4.21,2147
1180.85,81.855,-415.2,-4.07,2148
1181.4,81.899,-414.3,-3.93,2149
1181.95,81.943,-421,-5.03,2150
1182.5,81.992,-416.3,-4.26,2151
1183.05,82.037,-418.3,-4.59,2152
1183.6,82.084,-413,-3.71,2153
1184.15,82.128,-419.2,-4.74,2154
1184.7,82.174,-413.8,-3.85,2155
1185.25,82.218,-414.2,-3.91,2156
1185.8,82.261,-408.5,-2.97,2157
1186.35,82.303,-409.4,-3.12,2158
1186.9,82.343,-412.5,-3.63,2159
1187.45,82.386,-408.4,-2.96,2160
1188,82.427,-412.2,-3.59,2161
1188.55,82.469,-413.9,-3.87,2162
1189.1,82.512,-408.9,-3.04,2163
1189.65,82.554,-417.1,-4.4,2164
1190.2,82.599,-412.2,-3.59,2165
1190.75,82.642,-402.6,-2.01,2166
1191.3,82.68,-413.4,-3.79,2167
1191.85,82.721,-412.1,-3.58,2168
1192.4,82.763,-407.2,-2.77,2169
1192.95,82.804,-411.5,-3.48,2170
1193.5,82.846,-413.1,-3.74,2171
1194.05,82.889,-413,-3.73,2172
1194.6,82.932,-409.4,-3.14,2173
1195.15,82.974,-414.3,-3.95,2174
1195.7,83.016,-405.5,-2.49,2175
1196.25,83.057,-411.7,-3.52,2176
1196.8,83.098,-405.4,-2.48,2177
1197.35,83.137,-406.4,-2.65,2178
1197.9,83.176,-407.1,-2.76,2179
1198.45,83.216,-407.5,-2.83,2180
1199,83.255,-405.3,-2.47,2181
1199.55,83.294,-404.3,-2.3,2182
1200.1,83.333,-412.6,-3.68,2183
1200.65,83.375,-411,-3.41,2184
1201.2,83.417,-411.9,-3.56,2185
1201.75,83.46,-414.8,-4.04,2186
1202.3,83.503,-407.5,-2.84,2187
1202.85,83.545,-415.1,-4.09,2188
1203.4,83.589,-412.3,-3.63,2189
1203.95,83.632,-410.7,-3.37,2190
1204.5,83.675,-412.8,-3.71,2191
1205.05,83.716,-405.8,-2.56,2192
1205.6,83.756,-405.5,-2.51,2193
1206.15,83.796,-418.7,-4.69,2194
1206.7,83.843,-410.8,-3.39,2195
1207.25,83.885,-414.1,-3.93,2196
1207.8,83.929,-411.1,-3.44,2197
1208.35,83.97,-404.9,-2.41,2198
1208.9,84.012,-415,-4.08,2199
1209.45,84.054,-410.6,-3.36,2200
1210,84.097,-415.5,-4.17,2201
1210.55,84.142,-410.1,-3.28,2202
1211.1,84.184,-419.9,-4.89,2203
1211.65,84.231,-413.3,-3.81,2204
1212.2,84.276,-416,-4.25,2205
1212.75,84.322,-417.2,-4.45,2206
1213.3,84.367,-411.2,-3.46,2207
1213.85,84.411,-411.9,-3.58,2208
1214.4,84.455,-416.3,-4.3,2209
1214.95,84.5,-413.5,-3.84,2210
1215.5,84.544,-414.9,-4.07,2211
1216.05,84.589,-412,-3.59,2212
1216.6,84.632,-410.2,-3.3,2213
1217.15,84.674,-413.7,-3.88,2214
1217.7,84.719,-416.4,-4.32,2215
1218.25,84.765,-420.5,-5,2216
1218.8,84.813,-415.9,-4.24,2217
1219.35,84.858,-409.9,-3.25,2218
1219.9,84.903,-422.6,-5.35,2219
1220.45,84.951,-418.2,-4.62,2220
1221,84.999,-416.4,-4.32,2221
1221.55,85.046,-418.3,-4.64,2222
1222.1,85.093,-419.7,-4.87,2223
1222.65,85.142,-416,-4.26,2224
1223.2,85.188,-406.2,-2.64,2225
1223.75,85.229,-419.5,-4.84,2226
1224.3,85.276,-418.5,-4.67,2227
1224.85,85.324,-417.4,-4.49,2228
1225.4,85.371,-418.3,-4.64,2229
1225.95,85.419,-421.9,-5.23,2230
1226.5,85.468,-414.4,-4,2231
1227.05,85.515,-420.8,-5.05,2232
1227.6,85.564,-420.3,-4.97,2233
1228.15,85.613,-420.4,-4.99,2234
1228.7,85.662,-417.4,-4.49,2235
1229.25,85.71,-419,-4.76,2236
1229.8,85.759,-423.1,-5.43,2237
1230.35,85.81,-422.5,-5.33,2238
1230.9,85.861,-422.1,-5.27,2239
1231.45,85.911,-422,-5.25,2240
1232,85.962,-417.9,-4.57,2241
1232.55,86.01,-419.1,-4.77,2242
1233.1,86.059,-420.6,-5.02,2243
1233.65,86.108,-416.8,-4.39,2244
1234.2,86.157,-425.7,-5.86,2245
1234.75,86.208,-421.9,-5.23,2246
1235.3,86.26,-422.3,-5.3,2247
1235.85,86.311,-422.5,-5.33,2248
1236.4,86.362,-420.4,-4.98,2249
1236.95,86.413,-425.4,-5.81,2250
1237.5,86.466,-424.6,-5.68,2251
1238.05,86.519,-426.5,-5.99,2252
1238.6,86.574,-428.1,-6.25,2253
1239.15,86.63,-428.5,-6.32,2254
1239.7,86.686,-419,-4.75,2255
1240.25,86.735,-427.1,-6.09,2256
1240.8,86.79,-425.3,-5.79,2257
1241.35,86.844,-427,-6.07,2258
1241.9,86.899,-422.5,-5.32,2259
1242.45,86.952,-429.8,-6.53,2260
1243,87.008,-424.6,-5.67,2261
1243.55,87.063,-430.3,-6.61,2262
1244.1,87.121,-433.7,-7.17,2263
1244.65,87.182,-436.3,-7.6,2264
1245.2,87.246,-435.9,-7.53,2265
1245.75,87.31,-430.1,-6.57,2266
1246.3,87.368,-423.6,-5.49,2267
1246.85,87.423,-430.6,-6.65,2268
1247.4,87.481,-432.7,-6.99,2269
1247.95,87.541,-429.5,-6.46,2270
1248.5,87.599,-431.8,-6.84,2271
1249.05,87.658,-424.1,-5.57,2272
1249.6,87.714,-435.4,-7.44,2273
1250.15,87.774,-425.8,-5.85,2274
1250.7,87.831,-432.6,-6.97,2275
1251.25,87.891,-429.9,-6.52,2276
1251.8,87.949,-427,-6.04,2277
1252.35,88.004,-425.5,-5.8,2278
1252.9,88.059,-425.2,-5.75,2279
1253.45,88.114,-430.3,-6.59,2280
1254,88.172,-429.9,-6.52,2281
1254.55,88.23,-426.4,-5.94,2282
1255.1,88.286,-432.1,-6.88,2283
1255.65,88.346,-425.6,-5.81,2284
1256.2,88.401,-429.3,-6.42,2285
1256.75,88.459,-432.9,-7.01,2286
1257.3,88.518,-424.9,-5.69,2287
1257.85,88.574,-427.7,-6.15,2288
1258.4,88.631,-428.4,-6.27,2289
1258.95,88.688,-424.9,-5.69,2290
1259.5,88.742,-422.3,-5.26,2291
1260.05,88.794,-424.4,-5.61,2292
1260.6,88.847,-421.3,-5.1,2293
1261.15,88.899,-423.9,-5.53,2294
1261.7,88.952,-421.3,-5.1,2295
1262.25,89.005,-429.4,-6.44,2296
1262.8,89.062,-428.5,-6.29,2297
1263.35,89.119,-424.6,-5.64,2298
1263.9,89.174,-427.3,-6.09,2299
1264.45,89.23,-427.7,-6.16,2300
1265,89.286,-418.7,-4.67,2301
1265.55,89.336,-420,-4.89,2302
1266.1,89.387,-421.4,-5.12,2303
1266.65,89.438,-419.7,-4.84,2304
1267.2,89.489,-421,-5.05,2305
1267.75,89.54,-422.2,-5.25,2306
1268.3,89.592,-428.1,-6.23,2307
1268.85,89.65,-427.4,-6.11,2308
1269.4,89.705,-419.2,-4.76,2309
1269.95,89.757,-421.7,-5.17,2310
1270.5,89.808,-422,-5.22,2311
1271.05,89.861,-423.8,-5.52,2312
1271.6,89.913,-418.8,-4.7,2313
1272.15,89.963,-413.9,-3.89,2314
1272.7,90.012,-420.7,-5.01,2315
1273.25,90.062,-423,-5.39,2316
1273.8,90.115,-423.4,-5.46,2317
1274.35,90.168,-423,-5.4,2318
1274.9,90.222,-423.4,-5.46,2319
1275.45,90.274,-414.4,-3.98,2320
1276,90.324,-428.9,-6.37,2321
1276.55,90.38,-425.8,-5.86,2322
1277.1,90.436,-422.5,-5.32,2323
1277.65,90.489,-420,-4.91,2324
1278.2,90.54,-431.3,-6.77,2325
1278.75,90.6,-430.2,-6.59,2326
1279.3,90.66,-428.9,-6.38,2327
1279.85,90.719,-427.9,-6.21,2328
1280.4,90.777,-426.1,-5.92,2329
1280.95,90.833,-424.4,-5.64,2330
1281.5,90.888,-419.8,-4.88,2331
1282.05,90.939,-421.5,-5.16,2332
1282.6,90.991,-424.6,-5.67,2333
1283.15,91.046,-424.8,-5.71,2334
1283.7,91.101,-421.5,-5.16,2335
1284.25,91.156,-430.2,-6.6,2336
1284.8,91.213,-425.1,-5.76,2337
1285.35,91.27,-428.6,-6.34,2338
1285.9,91.328,-425.8,-5.87,2339
1286.45,91.385,-425.5,-5.82,2340
1287,91.441,-431,-6.73,2341
1287.55,91.5,-415.8,-4.22,2342
1288.1,91.55,-420.2,-4.95,2343
1288.65,91.602,-424.1,-5.59,2344
1289.2,91.657,-426.8,-6.04,2345
1289.75,91.714,-427.7,-6.19,2346
1290.3,91.771,-422.1,-5.27,2347
1290.85,91.825,-424.6,-5.68,2348
1291.4,91.88,-424.2,-5.61,2349
1291.95,91.935,-419.9,-4.9,2350
1292.5,91.987,-422.3,-5.3,2351
1293.05,92.04,-422.6,-5.35,2352
1293.6,92.094,-422.5,-5.33,2353
1294.15,92.148,-425.1,-5.76,2354
1294.7,92.204,-425.6,-5.85,2355
1295.25,92.26,-424.3,-5.63,2356
1295.8,92.315,-422.1,-5.27,2357
1296.35,92.368,-415.2,-4.13,2358
1296.9,92.418,-421.6,-5.19,2359
1297.45,92.471,-424.3,-5.63,2360
1298,92.525,-419.7,-4.87,2361
1298.55,92.577,-421,-5.09,2362
1299.1,92.629,-415.7,-4.21,2363
1299.65,92.679,-425.9,-5.9,2364
1300.2,92.734,-418.6,-4.69,2365
1300.75,92.786,-419.9,-4.91,2366
1301.3,92.838,-419.7,-4.88,2367
1301.85,92.889,-419.2,-4.8,2368
1302.4,92.941,-422.7,-5.37,2369
1302.95,92.995,-426.8,-6.05,2370
1303.5,93.051,-418,-4.6,2371
1304.05,93.104,-422.4,-5.32,2372
1304.6,93.157,-421.4,-5.16,2373
1305.15,93.211,-424,-5.59,2374
1305.7,93.264,-416.7,-4.38,2375
1306.25,93.315,-415.8,-4.23,2376
1306.8,93.364,-417.8,-4.57,2377
1307.35,93.414,-417.2,-4.47,2378
1307.9,93.465,-419.1,-4.78,2379
1308.45,93.517,-426,-5.92,2380
1309,93.572,-420.7,-5.05,2381
1309.55,93.626,-419.7,-4.88,2382
1310.1,93.676,-411.5,-3.53,2383
1310.65,93.725,-423.7,-5.54,2384
1311.2,93.778,-418.8,-4.73,2385
1311.75,93.83,-417,-4.44,2386
1312.3,93.88,-419.1,-4.78,2387
1312.85,93.931,-419.5,-4.85,2388
1313.4,93.983,-418.4,-4.67,2389
1313.95,94.034,-416.4,-4.34,2390
1314.5,94.084,-416.7,-4.39,2391
1315.05,94.133,-415.2,-4.14,2392
1315.6,94.182,-415.7,-4.22,2393
1316.15,94.232,-424.1,-5.61,2394
1316.7,94.286,-414.3,-3.99,2395
1317.25,94.335,-418,-4.6,2396
1317.8,94.386,-422.9,-5.41,2397
1318.35,94.44,-415.8,-4.24,2398
1318.9,94.49,-420,-4.93,2399
1319.45,94.542,-420.1,-4.95,2400
1320,94.595,-420.7,-5.05,2401
1320.55,94.649,-427.2,-6.12,2402
1321.1,94.705,-418.5,-4.68,2403
1321.65,94.757,-414,-3.94,2404
1322.2,94.805,-406.7,-2.73,2405
1322.75,94.849,-408.4,-3.02,2406
1323.3,94.893,-415.4,-4.17,2407
1323.85,94.941,-410.8,-3.41,2408
1324.4,94.987,-412.1,-3.63,2409
1324.95,95.034,-416.9,-4.42,2410
1325.5,95.083,-415.2,-4.14,2411
1326.05,95.132,-415,-4.11,2412
1326.6,95.182,-419.3,-4.82,2413
1327.15,95.234,-422.7,-5.38,2414
1327.7,95.288,-420,-4.94,2415
1328.25,95.341,-420.6,-5.03,2416
1328.8,95.394,-422.4,-5.33,2417
1329.35,95.449,-420.3,-4.98,2418
1329.9,95.502,-419.9,-4.92,2419
1330.45,95.555,-422.6,-5.36,2420
1331,95.609,-417.6,-4.54,2421
1331.55,95.661,-420.5,-5.02,2422
1332.1,95.714,-422,-5.26,2423
1332.65,95.767,-415.7,-4.22,2424
1333.2,95.819,-420.2,-4.96,2425
1333.75,95.871,-422.2,-5.3,2426
1334.3,95.924,-409.7,-3.23,2427
1334.85,95.972,-419.1,-4.78,2428
1335.4,96.024,-425.6,-5.86,2429
1335.95,96.079,-415.2,-4.14,2430
1336.5,96.13,-419.2,-4.8,2431
1337.05,96.182,-416.3,-4.32,2432
1337.6,96.232,-412.7,-3.73,2433
1338.15,96.28,-418,-4.6,2434
1338.7,96.331,-421.8,-5.23,2435
1339.25,96.385,-419.6,-4.87,2436
1339.8,96.438,-412.5,-3.69,2437
1340.35,96.486,-425.5,-5.84,2438
1340.9,96.543,-421.3,-5.15,2439
1341.45,96.597,-418.8,-4.73,2440
1342,96.649,-413.3,-3.82,2441
1342.55,96.699,-423.2,-5.46,2442
1343.1,96.752,-416.1,-4.29,2443
1343.65,96.804,-419.2,-4.8,2444
1344.2,96.855,-415.8,-4.24,2445
1344.75,96.906,-418.7,-4.72,2446
1345.3,96.958,-418.6,-4.7,2447
1345.85,97.011,-424.7,-5.71,2448
1346.4,97.065,-411.7,-3.56,2449
1346.95,97.116,-421.1,-5.11,2450
1347.5,97.167,-415.7,-4.22,2451
1348.05,97.218,-416.3,-4.32,2452
1348.6,97.268,-415.7,-4.22,2453
1349.15,97.319,-416.6,-4.37,2454
1349.7,97.369,-415.4,-4.17,2455
1350.25,97.42,-420.7,-5.05,2456
1350.8,97.472,-419.4,-4.83,2457
1351.35,97.525,-413.4,-3.84,2458
1351.9,97.575,-423.2,-5.46,2459
1352.45,97.629,-418.8,-4.73,2460
1353,97.682,-419.6,-4.86,2461
1353.55,97.735,-410.8,-3.41,2462
1354.1,97.783,-415.6,-4.2,2463
1354.65,97.832,-419.2,-4.8,2464
1355.2,97.885,-421.2,-5.13,2465
1355.75,97.94,-420.6,-5.03,2466
1356.3,97.994,-419.1,-4.78,2467
1356.85,98.046,-413.3,-3.82,2468
1357.4,98.095,-417.2,-4.46,2469
1357.95,98.146,-415.4,-4.16,2470
1358.5,98.197,-423.1,-5.44,2471
1359.05,98.251,-412.5,-3.68,2472
1359.6,98.302,-422.6,-5.35,2473
1360.15,98.355,-418.2,-4.63,2474
1360.7,98.408,-418,-4.59,2475
1361.25,98.459,-412.8,-3.73,2476
1361.8,98.509,-418.3,-4.64,2477
1362.35,98.56,-412.5,-3.68,2478
1362.9,98.61,-419.4,-4.82,2479
1363.45,98.662,-422.5,-5.33,2480
1364,98.717,-421.4,-5.15,2481
1364.55,98.772,-417.7,-4.54,2482
1365.1,98.825,-422.3,-5.3,2483
1365.65,98.88,-417.3,-4.47,2484
1366.2,98.933,-424.5,-5.66,2485
1366.75,98.99,-416.4,-4.32,2486
1367.3,99.041,-418.7,-4.7,2487
1367.85,99.094,-418.5,-4.67,2488
1368.4,99.147,-425.8,-5.87,2489
1368.95,99.205,-424.1,-5.59,2490
1369.5,99.263,-421.5,-5.16,2491
1370.05,99.318,-418.8,-4.71,2492
1370.6,99.372,-422.2,-5.28,2493
1371.15,99.427,-420.9,-5.06,2494
1371.7,99.482,-418.7,-4.7,2495
1372.25,99.535,-415.7,-4.2,2496
1372.8,99.586,-421.8,-5.21,2497
1373.35,99.641,-415.7,-4.2,2498
1373.9,99.692,-415.5,-4.17,2499
1374.45,99.743,-418,-4.58,2500
1375,99.795,-417.7,-4.53,2501
1375.55,99.848,-424.2,-5.61,2502
1376.1,99.904,-416.3,-4.3,2503
1376.65,99.957,-420.7,-5.03,2504
1377.2,100.01,-416.4,-4.32,2505
1377.75,100.062,-414.9,-4.07,2506
1378.3,100.114,-419.8,-4.88,2507
1378.85,100.166,-416.5,-4.33,2508
1379.4,100.218,-413.8,-3.89,2509
1379.95,100.269,-419,-4.75,2510
1380.5,100.321,-417.4,-4.48,2511
1381.05,100.374,-419.1,-4.76,2512
1381.6,100.426,-413.2,-3.79,2513
1382.15,100.477,-418.5,-4.67,2514
1382.7,100.529,-414.6,-4.02,2515
1383.25,100.58,-420.5,-5,2516
1383.8,100.634,-417.9,-4.57,2517
1384.35,100.687,-417.2,-4.45,2518
1384.9,100.739,-416.3,-4.3,2519
1385.45,100.791,-416.2,-4.29,2520
1386,100.842,-414,-3.92,2521
1386.55,100.893,-421.3,-5.13,2522
1387.1,100.948,-420,-4.92,2523
1387.65,101.003,-421.5,-5.16,2524
1388.2,101.058,-419.9,-4.9,2525
1388.75,101.113,-415.9,-4.24,2526
1389.3,101.165,-416.7,-4.37,2527
1389.85,101.216,-413.2,-3.79,2528
1390.4,101.266,-411.7,-3.54,2529
1390.95,101.315,-414.7,-4.04,2530
1391.5,101.363,-407.1,-2.79,2531
1392.05,101.41,-411.1,-3.45,2532
1392.6,101.458,-417.5,-4.51,2533
1393.15,101.509,-413.7,-3.88,2534
1393.7,101.561,-419.5,-4.84,2535
1394.25,101.614,-417.3,-4.47,2536
1394.8,101.667,-418.6,-4.69,2537
1395.35,101.72,-415,-4.09,2538
1395.9,101.772,-418.3,-4.64,2539
1396.45,101.825,-416.5,-4.34,2540
1397,101.878,-416.5,-4.34,2541
1397.55,101.93,-416,-4.26,2542
1398.1,101.982,-420.6,-5.02,2543
1398.65,102.038,-418,-4.59,2544
1399.2,102.091,-416.9,-4.41,2545
1399.75,102.144,-415.9,-4.24,2546
1400.3,102.196,-419.9,-4.9,2547
1400.85,102.252,-427.6,-6.18,2548
1401.4,102.312,-418.9,-4.74,2549
1401.95,102.368,-419.5,-4.84,2550
1402.5,102.423,-421.3,-5.13,2551
1403.05,102.479,-419.7,-4.87,2552
1403.6,102.535,-419.1,-4.77,2553
1404.15,102.59,-423.2,-5.45,2554
1404.7,102.647,-416.4,-4.32,2555
1405.25,102.702,-423.6,-5.51,2556
1405.8,102.76,-424,-5.58,2557
1406.35,102.819,-423.8,-5.54,2558
1406.9,102.878,-422,-5.24,2559
1407.45,102.935,-419.3,-4.8,2560
1408,102.991,-426.3,-5.95,2561
1408.55,103.052,-425,-5.74,2562
1409.1,103.113,-427.9,-6.22,2563
1409.65,103.175,-422.3,-5.29,2564
1410.2,103.234,-432.5,-6.97,2565
1410.75,103.302,-431.1,-6.74,2566
1411.3,103.368,-428.2,-6.26,2567
1411.85,103.433,-434.8,-7.35,2568
1412.4,103.503,-432.6,-6.98,2569
1412.95,103.571,-429.4,-6.45,2570
1413.5,103.637,-434.5,-7.29,2571
1414.05,103.705,-425.7,-5.83,2572
1414.6,103.77,-432.1,-6.89,2573
1415.15,103.836,-424.9,-5.69,2574
1415.7,103.898,-428.3,-6.25,2575
1416.25,103.961,-425.1,-5.72,2576
1416.8,104.022,-424.8,-5.67,2577
1417.35,104.083,-431.5,-6.78,2578
1417.9,104.15,-427.8,-6.16,2579
1418.45,104.212,-418.2,-4.57,2580
1419,104.27,-424.7,-5.64,2581
1419.55,104.33,-426.5,-5.94,2582
1420.1,104.392,-423.7,-5.48,2583
1420.65,104.453,-423.7,-5.47,2584
1421.2,104.512,-422.6,-5.29,2585
1421.75,104.572,-425.4,-5.75,2586
1422.3,104.633,-422.4,-5.25,2587
1422.85,104.692,-418.4,-4.59,2588
1423.4,104.748,-420.3,-4.9,2589
1423.95,104.804,-420.2,-4.88,2590
1424.5,104.861,-418.7,-4.64,2591
1425.05,104.918,-421.8,-5.15,2592
1425.6,104.975,-420.8,-4.98,2593
1426.15,105.033,-415,-4.02,2594
1426.7,105.086,-420,-4.85,2595
1427.25,105.143,-423.9,-5.49,2596
1427.8,105.204,-424.6,-5.6,2597
1428.35,105.264,-420.2,-4.87,2598
1428.9,105.322,-419.7,-4.79,2599
1429.45,105.379,-422.1,-5.18,2600
1430,105.438,-420.3,-4.89,2601
1430.55,105.495,-418.8,-4.64,2602
1431.1,105.552,-419.5,-4.75,2603
1431.65,105.608,-420.4,-4.9,2604
1432.2,105.666,-422,-5.16,2605
1432.75,105.725,-422.6,-5.26,2606
1433.3,105.785,-421.8,-5.13,2607
1433.85,105.844,-422.7,-5.27,2608
1434.4,105.902,-412.2,-3.54,2609
1434.95,105.956,-417.9,-4.48,2610
1435.5,106.011,-420,-4.82,2611
1436.05,106.067,-415.7,-4.11,2612
1436.6,106.122,-418.1,-4.51,2613
1437.15,106.178,-418.7,-4.6,2614
1437.7,106.234,-414.7,-3.94,2615
1438.25,106.287,-414.7,-3.94,2616
1438.8,106.34,-416,-4.16,2617
1439.35,106.394,-413.1,-3.68,2618
1439.9,106.447,-414.7,-3.94,2619
1440.45,106.499,-411,-3.33,2620
1441,106.55,-412.6,-3.59,2621
1441.55,106.601,-409.1,-3.01,2622
1442.1,106.651,-413.4,-3.72,2623
1442.65,106.704,-416,-4.15,2624
1443.2,106.759,-422.2,-5.17,2625
1443.75,106.818,-420.1,-4.83,2626
1444.3,106.876,-418.9,-4.63,2627
1444.85,106.933,-415.3,-4.03,2628
1445.4,106.988,-420.1,-4.82,2629
1445.95,107.046,-416.9,-4.29,2630
1446.5,107.103,-421.2,-5,2631
1447.05,107.162,-423.2,-5.32,2632
1447.6,107.223,-421.6,-5.06,2633
1448.15,107.283,-420.5,-4.87,2634
1448.7,107.343,-426.3,-5.83,2635
1449.25,107.406,-421.5,-5.03,2636
1449.8,107.468,-424.5,-5.52,2637
1450.35,107.53,-420.8,-4.91,2638
1450.9,107.59,-424.9,-5.58,2639
1451.45,107.653,-425.2,-5.63,2640
1452,107.717,-424.7,-5.54,2641
1452.55,107.781,-429,-6.25,2642
1453.1,107.849,-428.9,-6.23,2643
1453.65,107.917,-429.9,-6.39,2644
1454.2,107.986,-430.4,-6.46,2645
1454.75,108.056,-429.9,-6.38,2646
1455.3,108.125,-430.8,-6.52,2647
1455.85,108.195,-432.6,-6.81,2648
1456.4,108.267,-433.1,-6.89,2649
1456.95,108.34,-436.9,-7.51,2650
1457.5,108.416,-430,-6.36,2651
1458.05,108.487,-433.7,-6.97,2652
1458.6,108.561,-431.1,-6.53,2653
1459.15,108.632,-433.2,-6.88,2654
1459.7,108.705,-430.1,-6.36,2655
1460.25,108.776,-435.2,-7.19,2656
1460.8,108.851,-430.6,-6.43,2657
1461.35,108.922,-430.8,-6.46,2658
1461.9,108.994,-438.6,-7.74,2659
1462.45,109.072,-430,-6.31,2660
1463,109.143,-427,-5.81,2661
1463.55,109.211,-429.7,-6.25,2662
1464.1,109.28,-428.7,-6.08,2663
1464.65,109.349,-424.6,-5.39,2664
1465.2,109.416,-434.6,-7.04,2665
1465.75,109.49,-427.2,-5.81,2666
1466.3,109.557,-426.1,-5.62,2667
1466.85,109.624,-425.9,-5.58,2668
1467.4,109.69,-426.1,-5.61,2669
1467.95,109.756,-424.9,-5.41,2670
1468.5,109.822,-422.5,-5.01,2671
1469.05,109.885,-432.3,-6.62,2672
1469.6,109.957,-426.6,-5.67,2673
1470.15,110.025,-418,-4.25,2674
1470.7,110.085,-424.7,-5.35,2675
1471.25,110.151,-431.2,-6.42,2676
1471.8,110.222,-426.4,-5.62,2677
1472.35,110.29,-426.2,-5.58,2678
1472.9,110.356,-419.5,-4.47,2679
1473.45,110.419,-423.5,-5.12,2680
1474,110.482,-424.4,-5.27,2681
1474.55,110.548,-424.4,-5.26,2682
1475.1,110.614,-426.3,-5.57,2683
1475.65,110.681,-425.4,-5.41,2684
1476.2,110.747,-421.6,-4.78,2685
1476.75,110.811,-424.7,-5.29,2686
1477.3,110.876,-421.8,-4.8,2687
1477.85,110.94,-422.6,-4.93,2688
1478.4,111.005,-425.8,-5.45,2689
1478.95,111.071,-423.1,-5,2690
1479.5,111.136,-422.9,-4.96,2691
1480.05,111.2,-417.8,-4.12,2692
1480.6,111.263,-427.6,-5.73,2693
1481.15,111.33,-427.9,-5.77,2694
1481.7,111.4,-421.4,-4.69,2695
1482.25,111.465,-425.8,-5.41,2696
1482.8,111.532,-424.5,-5.19,2697
1483.35,111.598,-420,-4.44,2698
1483.9,111.662,-426,-5.43,2699
1484.45,111.729,-426.3,-5.47,2700
1485,111.797,-425,-5.25,2701
1485.55,111.865,-424.6,-5.18,2702
1486.1,111.932,-422.5,-4.83,2703
1486.65,111.997,-425.9,-5.38,2704
1487.2,112.066,-427.4,-5.62,2705
1487.75,112.135,-420.5,-4.48,2706
1488.3,112.199,-421.3,-4.6,2707
1488.85,112.263,-424.6,-5.14,2708
1489.4,112.33,-427.6,-5.63,2709
1489.95,112.4,-421.4,-4.6,2710
1490.5,112.464,-418.7,-4.15,2711
1491.05,112.527,-424.3,-5.07,2712
1491.6,112.592,-418,-4.02,2713
1492.15,112.654,-416.8,-3.82,2714
1492.7,112.714,-420.1,-4.36,2715
1493.25,112.777,-422.6,-4.77,2716
1493.8,112.843,-421.9,-4.64,2717
1494.35,112.907,-421,-4.49,2718
1494.9,112.971,-418.6,-4.09,2719
1495.45,113.034,-418.7,-4.1,2720
1496,113.097,-424.7,-5.08,2721
1496.55,113.162,-413.4,-3.21,2722
1497.1,113.222,-416,-3.64,2723
1497.65,113.281,-418.1,-3.98,2724
1498.2,113.342,-415.4,-3.53,2725
1498.75,113.403,-420.4,-4.35,2726
1499.3,113.466,-422.1,-4.62,2727
1499.85,113.531,-416.7,-3.73,2728
1500.4,113.592,-414.9,-3.42,2729
1500.95,113.652,-422.6,-4.69,2730
1501.5,113.716,-414,-3.26,2731
1502.05,113.776,-412.8,-3.06,2732
1502.6,113.833,-411.4,-2.82,2733
1503.15,113.889,-413.6,-3.18,2734
1503.7,113.947,-412.7,-3.03,2735
1504.25,114.004,-411.5,-2.83,2736
1504.8,114.06,-411.8,-2.87,2737
1505.35,114.116,-406.6,-2.01,2738
1505.9,114.17,-413.5,-3.14,2739
1506.45,114.227,-412.4,-2.96,2740
1507,114.284,-413.2,-3.08,2741
1507.55,114.342,-410,-2.55,2742
1508.1,114.398,-406.8,-2.02,2743
1508.65,114.452,-413.3,-3.09,2744
1509.2,114.509,-414.7,-3.31,2745
1509.75,114.569,-414.5,-3.27,2746
1510.3,114.627,-411,-2.69,2747
1510.85,114.684,-409.4,-2.42,2748
1511.4,114.74,-404.6,-1.63,2749
1511.95,114.792,-405.9,-1.84,2750
1512.5,114.844,-409.9,-2.49,2751
1513.05,114.899,-412.1,-2.85,2752
1513.6,114.956,-408,-2.17,2753
1514.15,115.01,-409.7,-2.45,2754
1514.7,115.064,-400.7,-0.96,2755
1515.25,115.115,-408,-2.16,2756
1515.8,115.169,-406.6,-1.92,2757
1516.35,115.223,-408.2,-2.18,2758
1516.9,115.276,-402.3,-1.21,2759
1517.45,115.327,-410.8,-2.6,2760
1518,115.382,-407.9,-2.12,2761
1518.55,115.436,-409.4,-2.36,2762
1519.1,115.492,-408.6,-2.23,2763
1519.65,115.546,-407.7,-2.07,2764
1520.2,115.599,-405,-1.62,2765
1520.75,115.652,-409,-2.28,2766
1521.3,115.707,-411,-2.6,2767
1521.85,115.762,-405.1,-1.63,2768
1522.4,115.815,-403.9,-1.42,2769
1522.95,115.868,-411.1,-2.61,2770
1523.5,115.922,-405.7,-1.71,2771
1524.05,115.976,-405.2,-1.63,2772
1524.6,116.029,-410.9,-2.56,2773
1525.15,116.085,-404,-1.42,2774
1525.7,116.136,-405.9,-1.73,2775
1526.25,116.189,-413.8,-3.03,2776
1526.8,116.248,-404.9,-1.55,2777
1527.35,116.3,-400.4,-0.81,2778
1527.9,116.35,-402.9,-1.21,2779
1528.45,116.4,-401.7,-1.01,2780
1529,116.45,-403.1,-1.24,2781
1529.55,116.5,-401.8,-1.02,2782
1530.1,116.55,-405.3,-1.6,2783
1530.65,116.602,-404.6,-1.48,2784
1531.2,116.654,-402.9,-1.19,2785
1531.75,116.704,-399.1,-0.56,2786
1532.3,116.754,-403.7,-1.32,2787
1532.85,116.805,-406.1,-1.71,2788
1533.4,116.856,-397.6,-0.3,2789
1533.95,116.905,-400.6,-0.79,2790
1534.5,116.953,-398.4,-0.43,2791
1535.05,117.001,-401.8,-0.99,2792
1535.6,117.051,-405.3,-1.56,2793
1536.15,117.102,-395.6,0.04,2794
1536.7,117.149,-399.3,-0.56,2795
1537.25,117.197,-398.9,-0.5,2796
1537.8,117.245,-399.3,-0.56,2797
1538.35,117.293,-397.9,-0.32,2798
1538.9,117.34,-393.9,0.34,2799
1539.45,117.385,-400.2,-0.7,2800
1540,117.433,-400.6,-0.76,2801
1540.55,117.482,-397.2,-0.2,2802
1541.1,117.53,-398.4,-0.39,2803
1541.65,117.577,-398.3,-0.37,2804
1542.2,117.624,-393.7,0.39,2805
1542.75,117.67,-399.1,-0.5,2806
1543.3,117.717,-399.2,-0.51,2807
1543.85,117.765,-393.7,0.4,2808
1544.4,117.811,-398.6,-0.41,2809
1544.95,117.857,-395.6,0.09,2810
1545.5,117.905,-401.4,-0.87,2811
1546.05,117.954,-400.1,-0.65,2812
1546.6,118.001,-387.8,1.38,2813
1547.15,118.044,-391.8,0.73,2814
1547.7,118.087,-389.3,1.14,2815
1548.25,118.129,-395.9,0.05,2816
1548.8,118.175,-401.7,-0.9,2817
1549.35,118.224,-394.9,0.22,2818
1549.9,118.271,-398.2,-0.32,2819
1550.45,118.318,-400.5,-0.7,2820
1551,118.366,-393.7,0.43,2821
1551.55,118.412,-393.3,0.5,2822
1552.1,118.456,-392.1,0.7,2823
1552.65,118.501,-399.3,-0.49,2824
1553.2,118.549,-395.4,0.16,2825
1553.75,118.595,-396.9,-0.09,2826
1554.3,118.643,-398.5,-0.35,2827
1554.85,118.691,-396.8,-0.07,2828
1555.4,118.738,-391.9,0.75,2829
1555.95,118.782,-397.6,-0.19,2830
1556.5,118.829,-394.7,0.29,2831
1557.05,118.874,-394,0.41,2832
1557.6,118.918,-388.4,1.33,2833
1558.15,118.962,-395.5,0.16,2834
1558.7,119.005,-386.8,1.6,2835
1559.25,119.048,-393.1,0.56,2836
1559.8,119.092,-392.8,0.61,2837
1560.35,119.136,-394.6,0.32,2838
1560.9,119.182,-395.4,0.19,2839
1561.45,119.227,-392.2,0.72,2840
1562,119.272,-394.9,0.28,2841
1562.55,119.317,-394.8,0.3,2842
1563.1,119.363,-391.4,0.87,2843
1563.65,119.408,-398.7,-0.33,2844
1564.2,119.455,-396,0.12,2845
1564.75,119.501,-388.9,1.29,2846
1565.3,119.544,-392.7,0.67,2847
1565.85,119.588,-388.5,1.37,2848
1566.4,119.63,-395.1,0.28,2849
1566.95,119.675,-391.4,0.89,2850
1567.5,119.719,-389.3,1.25,2851
1568.05,119.76,-384.1,2.11,2852
1568.6,119.801,-392.3,0.76,2853
1569.15,119.844,-392.9,0.66,2854
1569.7,119.888,-390.1,1.13,2855
1570.25,119.931,-394.1,0.47,2856
1570.8,119.977,-396.3,0.11,2857
1571.35,120.022,-391.9,0.84,2858
1571.9,120.067,-390.2,1.13,2859
1572.45,120.11,-393.5,0.59,2860
1573,120.153,-385.1,1.98,2861
1573.55,120.195,-393.5,0.59,2862
1574.1,120.239,-385.6,1.9,2863
1574.65,120.279,-387.8,1.54,2864
1575.2,120.32,-389.6,1.25,2865
1575.75,120.362,-388.3,1.47,2866
1576.3,120.404,-392.4,0.79,2867
1576.85,120.448,-390.3,1.14,2868
1577.4,120.491,-388.9,1.38,2869
1577.95,120.533,-391.3,0.99,2870
1578.5,120.576,-393,0.71,2871
1579.05,120.62,-391.5,0.96,2872
1579.6,120.664,-389.6,1.28,2873
1580.15,120.707,-391.2,1.02,2874
1580.7,120.75,-390.6,1.12,2875
1581.25,120.793,-386.2,1.85,2876
1581.8,120.833,-389.5,1.31,2877
1582.35,120.875,-387.8,1.59,2878
1582.9,120.917,-388.9,1.42,2879
1583.45,120.958,-387.9,1.58,2880
1584,120.999,-386.2,1.87,2881
1584.55,121.04,-382.4,2.5,2882
1585.1,121.078,-390.6,1.15,2883
1585.65,121.121,-391,1.08,2884
1586.2,121.162,-382.5,2.49,2885
1586.75,121.203,-390.2,1.22,2886
1587.3,121.244,-389.2,1.39,2887
1587.85,121.286,-389.3,1.38,2888
1588.4,121.328,-388.3,1.55,2889
1588.95,121.37,-389.4,1.37,2890
1589.5,121.412,-388.3,1.55,2891
1590.05,121.453,-383.6,2.33,2892
1590.6,121.492,-386.4,1.87,2893
1591.15,121.532,-380.3,2.88,2894
1591.7,121.57,-387.6,1.68,2895
1592.25,121.611,-391.8,0.98,2896
1592.8,121.653,-384.3,2.23,2897
1593.35,121.693,-383.5,2.36,2898
1593.9,121.732,-387.7,1.67,2899
1594.45,121.773,-388.6,1.52,2900
1595,121.814,-387.6,1.69,2901
1595.55,121.855,-384.9,2.14,2902
1596.1,121.895,-389,1.46,2903
1596.65,121.937,-395,0.47,2904
1597.2,121.982,-390.4,1.24,2905
1597.75,122.025,-388.8,1.5,2906
1598.3,122.068,-391.3,1.09,2907
1598.85,122.11,-387.6,1.71,2908
1599.4,122.152,-390.5,1.23,2909
1599.95,122.195,-387.1,1.8,2910
1600.5,122.237,-385.5,2.06,2911
1601.05,122.277,-384,2.31,2912
1601.6,122.316,-387.6,1.72,2913
1602.15,122.356,-381.6,2.71,2914
1602.7,122.395,-384.8,2.18,2915
1603.25,122.435,-390.3,1.28,2916
1603.8,122.478,-388,1.66,2917
1604.35,122.519,-386,1.99,2918
1604.9,122.56,-387.6,1.73,2919
1605.45,122.601,-387.3,1.78,2920
1606,122.641,-385.6,2.06,2921
1606.55,122.681,-384.7,2.21,2922
1607.1,122.721,-385.6,2.06,2923
1607.65,122.761,-388.1,1.65,2924
1608.2,122.801,-382.8,2.53,2925
1608.75,122.84,-381.7,2.71,2926
1609.3,122.878,-383.9,2.34,2927
1609.85,122.918,-391.6,1.07,2928
1610.4,122.958,-383.3,2.44,2929
1610.95,122.999,-385.4,2.09,2930
1611.5,123.038,-385.1,2.14,2931
1612.05,123.078,-388.1,1.65,2932
1612.6,123.118,-384,2.32,2933
1613.15,123.16,-394.9,0.52,2934
1613.7,123.202,-383.2,2.45,2935
1614.25,123.242,-383.7,2.37,2936
1614.8,123.281,-387.5,1.74,2937
1615.35,123.323,-390.2,1.29,2938
1615.9,123.364,-382.6,2.55,2939
1616.45,123.405,-391.4,1.09,2940
1617,123.446,-384.7,2.2,2941
1617.55,123.486,-389,1.48,2942
1618.1,123.527,-379.8,3.01,2943
1618.65,123.566,-389,1.48,2944
1619.2,123.607,-390.1,1.3,2945
1619.75,123.649,-383.5,2.39,2946
1620.3,123.688,-381.4,2.73,2947
1620.85,123.726,-384,2.3,2948
1621.4,123.765,-383.9,2.32,2949
1621.95,123.805,-388.7,1.52,2950
1622.5,123.845,-379,3.12,2951
1623.05,123.882,-383.9,2.31,2952
1623.6,123.921,-385.5,2.04,2953
1624.15,123.961,-382.9,2.47,2954
1624.7,124,-388,1.62,2955
1625.25,124.041,-392.8,0.83,2956
1625.8,124.086,-382.6,2.51,2957
1626.35,124.124,-382.9,2.46,2958
1626.9,124.163,-383.7,2.33,2959
1627.45,124.2,-375,3.77,2960
1628,124.235,-382.6,2.5,2961
1628.55,124.273,-379.8,2.96,2962
1629.1,124.309,-375.6,3.66,2963
1629.65,124.345,-386,1.93,2964
1630.2,124.385,-382.7,2.48,2965
1630.75,124.424,-384.9,2.11,2966
1631.3,124.462,-380,2.92,2967
1631.85,124.501,-389.2,1.39,2968
1632.4,124.542,-388.3,1.54,2969
1632.95,124.585,-392.5,0.84,2970
1633.5,124.628,-386.4,1.85,2971
1634.05,124.67,-384.7,2.13,2972
1634.6,124.711,-392.3,0.87,2973
1635.15,124.754,-393.9,0.6,2974
1635.7,124.799,-387.2,1.71,2975
1636.25,124.841,-384.8,2.1,2976
1636.8,124.881,-381,2.73,2977
1637.35,124.92,-388,1.57,2978
1637.9,124.96,-384,2.23,2979
1638.45,125.001,-390.7,1.11,2980
1639,125.043,-392.5,0.81,2981
1639.55,125.088,-385,2.05,2982
1640.1,125.129,-391.8,0.92,2983
1640.65,125.172,-389.7,1.27,2984
1641.2,125.215,-385.2,2.01,2985
1641.75,125.256,-386.8,1.74,2986
1642.3,125.297,-388.6,1.44,2987
1642.85,125.339,-391.5,0.96,2988
1643.4,125.383,-385.8,1.9,2989
1643.95,125.424,-387.1,1.68,2990
1644.5,125.465,-385,2.03,2991
1645.05,125.506,-385.2,1.99,2992
1645.6,125.546,-390.3,1.14,2993
1646.15,125.589,-389.5,1.27,2994
1646.7,125.632,-389.1,1.33,2995
1647.25,125.674,-388.1,1.5,2996
1647.8,125.717,-390.6,1.08,2997
1648.35,125.76,-387.3,1.62,2998
1648.9,125.803,-393.5,0.59,2999
1649.45,125.848,-395.8,0.21,3000
1650,125.894,-384.4,2.09,3001
1650.55,125.935,-388.6,1.39,3002
1651.1,125.978,-390.5,1.08,3003
1651.65,126.022,-390.3,1.11,3004
1652.2,126.064,-383.2,2.28,3005
1652.75,126.106,-392.2,0.79,3006
1653.3,126.148,-384,2.14,3007
1653.85,126.189,-391.8,0.84,3008
1654.4,126.233,-391.4,0.91,3009
1654.95,126.277,-384.4,2.06,3010
1655.5,126.318,-384.4,2.06,3011
1656.05,126.359,-394.2,0.43,3012
1656.6,126.403,-390.1,1.11,3013
1657.15,126.448,-394.8,0.33,3014
1657.7,126.494,-393.8,0.49,3015
1658.25,126.541,-388.7,1.33,3016
1658.8,126.583,-389.7,1.16,3017
1659.35,126.626,-386,1.77,3018
1659.9,126.668,-385.1,1.91,3019
1660.45,126.708,-387.6,1.5,3020
1661,126.749,-382.2,2.39,3021
1661.55,126.789,-380.9,2.6,3022
1662.1,126.827,-383.6,2.14,3023
1662.65,126.866,-382.7,2.29,3024
1663.2,126.904,-377.1,3.21,3025
1663.75,126.94,-381.2,2.53,3026
1664.3,126.978,-377.2,3.18,3027
1664.85,127.015,-383.5,2.14,3028
1665.4,127.053,-379.5,2.79,3029
1665.95,127.09,-377,3.2,3030
1666.5,127.126,-380.3,2.65,3031
1667.05,127.164,-384.8,1.9,3032
1667.6,127.203,-383.2,2.16,3033
1668.15,127.243,-382.6,2.25,3034
1668.7,127.281,-380.4,2.61,3035
1669.25,127.319,-378.9,2.86,3036
1669.8,127.357,-386.1,1.66,3037
1670.35,127.397,-384.7,1.89,3038
1670.9,127.437,-383.5,2.08,3039
1671.45,127.476,-378,2.98,3040
1672,127.512,-375.9,3.33,3041
1672.55,127.548,-381.2,2.44,3042
1673.1,127.586,-379.2,2.77,3043
1673.65,127.622,-378.1,2.95,3044
1674.2,127.66,-383.5,2.04,3045
1674.75,127.698,-378,2.95,3046
1675.3,127.735,-374.1,3.59,3047
1675.85,127.773,-376.1,3.25,3048
1676.4,127.81,-378.7,2.81,3049
1676.95,127.846,-369.1,4.4,3050
1677.5,127.879,-375.3,3.36,3051
1678.05,127.913,-371.8,3.93,3052
1678.6,127.947,-369.4,4.32,3053
1679.15,127.979,-368.7,4.43,3054
1679.7,128.013,-375.1,3.36,3055
1680.25,128.047,-371.4,3.97,3056
1680.8,128.079,-376,3.2,3057
1681.35,128.113,-374.3,3.47,3058
1681.9,128.147,-375.5,3.26,3059
1682.45,128.182,-368.7,4.38,3060
1683,128.215,-379.6,2.56,3061
1683.55,128.249,-366.1,4.79,3062
1684.1,128.284,-370.8,4,3063
1684.65,128.317,-377.4,2.9,3064
1685.2,128.349,-370.2,4.08,3065
1685.75,128.38,-373.9,3.46,3066
1686.3,128.412,-365.8,4.79,3067
1686.85,128.443,-366.2,4.71,3068
1687.4,128.474,-370.1,4.06,3069
1687.95,128.506,-365.2,4.86,3070
1688.5,128.537,-371.3,3.84,3071
1689.05,128.567,-375.7,3.1,3072
1689.6,128.598,-372.2,3.66,3073
1690.15,128.631,-365,4.84,3074
1690.7,128.662,-361.2,5.46,3075
1691.25,128.694,-370.2,3.96,3076
1691.8,128.726,-373.9,3.34,3077
1692.35,128.759,-368,4.3,3078
1692.9,128.791,-366.2,4.59,3079
1693.45,128.822,-366.6,4.51,3080
1694,128.855,-374.7,3.16,3081
1694.55,128.889,-370.8,3.79,3082
1695.1,128.922,-370.2,3.88,3083
1695.65,128.956,-379.4,2.35,3084
1696.2,128.991,-372.3,3.52,3085
1696.75,129.024,-371.4,3.66,3086
1697.3,129.058,-365.6,4.61,3087
1697.85,129.09,-373,3.38,3088
1698.4,129.125,-374.5,3.12,3089
1698.95,129.158,-368.6,4.09,3090
1699.5,129.191,-370.3,3.8,3091
1700.05,129.224,-370.4,3.77,3092
1700.6,129.256,-365.6,4.56,3093
1701.15,129.287,-377.1,2.65,3094
1701.7,129.323,-375,2.98,3095
1702.25,129.358,-375.6,2.88,3096
1702.8,129.393,-366.6,4.35,3097
1703.35,129.425,-372.1,3.44,3098
1703.9,129.459,-374.3,3.06,3099
1704.45,129.493,-370,3.77,3100
1705,129.526,-373,3.26,3101
1705.55,129.56,-372.6,3.32,3102
1706.1,129.594,-371.7,3.46,3103
1706.65,129.627,-372.2,3.37,3104
1707.2,129.661,-373.9,3.08,3105
1707.75,129.696,-380.8,1.93,3106
1708.3,129.734,-377.8,2.42,3107
1708.85,129.77,-370,3.7,3108
1709.4,129.804,-372.3,3.31,3109
1709.95,129.838,-374.6,2.92,3110
1710.5,129.873,-373.6,3.08,3111
1711.05,129.907,-371.9,3.35,3112
1711.6,129.941,-378.1,2.31,3113
1712.15,129.977,-375.6,2.72,3114
1712.7,130.013,-374.4,2.91,3115
1713.25,130.049,-371.4,3.39,3116
1713.8,130.083,-382.4,1.57,3117
1714.35,130.122,-379,2.12,3118
1714.9,130.158,-374.7,2.82,3119
1715.45,130.194,-378.5,2.19,3120
1716,130.231,-380.1,1.91,3121
1716.55,130.268,-375.8,2.61,3122
1717.1,130.305,-374.9,2.75,3123
1717.65,130.341,-381.4,1.67,3124
1718.2,130.38,-381.5,1.64,3125
1718.75,130.417,-371.7,3.25,3126
1719.3,130.456,-386.7,0.77,3127
1719.85,130.496,-384.4,1.14,3128
1720.4,130.537,-378.2,2.15,3129
1720.95,130.575,-381.8,1.55,3130
1721.5,130.614,-383,1.34,3131
1722.05,130.655,-385.7,0.89,3132
1722.6,130.697,-384.7,1.04,3133
1723.15,130.738,-384.9,1,3134
1723.7,130.78,-386,0.81,3135
1724.25,130.822,-385.4,0.9,3136
1724.8,130.865,-391.9,-0.18,3137
1725.35,130.91,-388.2,0.42,3138
1725.9,130.954,-386.9,0.63,3139
1726.45,130.998,-387.9,0.46,3140
1727,131.041,-388.2,0.4,3141
1727.55,131.085,-385.9,0.77,3142
1728.1,131.128,-388.4,0.35,3143
1728.65,131.173,-392.4,-0.32,3144
1729.2,131.219,-388,0.4,3145
1729.75,131.264,-387.4,0.49,3146
1730.3,131.308,-389.9,0.07,3147
1730.85,131.353,-385.7,0.75,3148
1731.4,131.396,-391.6,-0.23,3149
1731.95,131.442,-390.9,-0.12,3150
1732.5,131.488,-400.2,-1.67,3151
1733.05,131.541,-397.1,-1.17,3152
1733.6,131.592,-394.2,-0.69,3153
1734.15,131.641,-396.8,-1.13,3154
1734.7,131.692,-396.5,-1.09,3155
1735.25,131.742,-399.5,-1.59,3156
1735.8,131.795,-399,-1.52,3157
1736.35,131.848,-400.4,-1.76,3158
1736.9,131.901,-400.5,-1.78,3159
1737.45,131.955,-398,-1.38,3160
1738,132.008,-406.9,-2.85,3161
1738.55,132.066,-405.3,-2.6,3162
1739.1,132.123,-398.7,-1.52,3163
1739.65,132.177,-399.5,-1.66,3164
1740.2,132.23,-397.5,-1.33,3165
1740.75,132.282,-402.1,-2.1,3166
1741.3,132.337,-403.4,-2.32,3167
1741.85,132.393,-403.1,-2.28,3168
1742.4,132.45,-408.3,-3.15,3169
1742.95,132.506,-402.1,-2.13,3170
1743.5,132.564,-408.2,-3.14,3171
1744.05,132.624,-408.9,-3.27,3172
1744.6,132.687,-405.6,-2.73,3173
1745.15,132.746,-410,-3.46,3174
1745.7,132.809,-408.8,-3.27,3175
1746.25,132.871,-411.6,-3.74,3176
1746.8,132.935,-410.4,-3.55,3177
1747.35,133,-415.2,-4.35,3178
1747.9,133.067,-413.8,-4.13,3179
1748.45,133.134,-407.1,-3.03,3180
1749,133.195,-408.2,-3.21,3181
1749.55,133.258,-417.2,-4.71,3182
1750.1,133.327,-417,-4.68,3183
1750.65,133.397,-410.2,-3.57,3184
1751.2,133.461,-406.7,-2.99,3185
1751.75,133.524,-410.9,-3.7,3186
1752.3,133.588,-415.6,-4.48,3187
1752.85,133.658,-417.5,-4.8,3188
1753.4,133.729,-420.6,-5.32,3189
1753.95,133.803,-410.5,-3.66,3190
1754.5,133.87,-418.7,-5.02,3191
1755.05,133.941,-417.6,-4.84,3192
1755.6,134.014,-419.6,-5.18,3193
1756.15,134.087,-422.7,-5.7,3194
1756.7,134.164,-416.3,-4.65,3195
1757.25,134.236,-422.1,-5.61,3196
1757.8,134.313,-421.3,-5.48,3197
1758.35,134.389,-421.2,-5.47,3198
1758.9,134.466,-423.7,-5.89,3199
1759.45,134.545,-423,-5.79,3200
1760,134.624,-422.8,-5.76,3201
1760.55,134.703,-426.1,-6.31,3202
1761.1,134.785,-424.6,-6.07,3203
1761.65,134.866,-425.9,-6.29,3204
1762.2,134.949,-429.4,-6.88,3205
1762.75,135.036,-438.2,-8.34,3206
1763.3,135.124,-430,-6.99,3207
1763.85,135.213,-434,-7.66,3208
1764.4,135.307,-434.6,-7.77,3209
1764.95,135.402,-434.3,-7.73,3210
1765.5,135.497,-434.7,-7.8,3211
1766.05,135.593,-430.7,-7.15,3212
1766.6,135.691,-428.7,-6.83,3213
1767.15,135.779,-435.8,-8.01,3214
1767.7,135.876,-432.5,-7.47,3215
1768.25,135.968,-426.8,-6.54,3216
1768.8,136.055,-431.9,-7.39,3217
1769.35,136.147,-437.9,-8.39,3218
1769.9,136.248,-434.8,-7.89,3219
1770.45,136.345,-438.3,-8.48,3220
1771,136.447,-439.8,-8.73,3221
1771.55,136.552,-440,-8.77,3222
1772.1,136.656,-436.9,-8.27,3223
1772.65,136.752,-438.3,-8.51,3224
1773.2,136.853,-435.9,-8.12,3225
1773.75,136.953,-437.9,-8.46,3226
1774.3,137.056,-439.2,-8.68,3227
1774.85,137.159,-431.6,-7.44,3228
1775.4,137.253,-431.7,-7.46,3229
1775.95,137.347,-436.6,-8.28,3230
1776.5,137.448,-435.5,-8.11,3231
1777.05,137.547,-433.4,-7.77,3232
1777.6,137.647,-436.9,-8.35,3233
1778.15,137.743,-438.3,-8.59,3234
1778.7,137.847,-435.8,-8.19,3235
1779.25,137.947,-433.2,-7.77,3236
1779.8,138.046,-436.6,-8.33,3237
1780.35,138.147,-434.9,-8.06,3238
1780.9,138.247,-437.5,-8.49,3239
1781.45,138.35,-437.7,-8.53,3240
1782,138.454,-434,-7.93,3241
1782.55,138.554,-439.6,-8.85,3242
1783.1,138.659,-440.5,-9.01,3243
1783.65,138.763,-439.1,-8.78,3244
1784.2,138.87,-443,-9.43,3245
1784.75,138.983,-440.8,-9.07,3246
1785.3,139.093,-440,-8.94,3247
1785.85,139.201,-442.3,-9.32,3248
1786.4,139.31,-438.9,-8.77,3249
1786.95,139.417,-437.5,-8.54,3250
1787.5,139.522,-437.6,-8.57,3251
1788.05,139.627,-439.3,-8.85,3252
1788.6,139.735,-441,-9.14,3253
1789.15,139.846,-437,-8.48,3254
1789.7,139.951,-440.9,-9.13,3255
1790.25,140.06,-434.1,-8.01,3256
1790.8,140.163,-441.2,-9.19,3257
1791.35,140.273,-440.7,-9.11,3258
1791.9,140.384,-436.8,-8.47,3259
1792.45,140.488,-435.3,-8.22,3260
1793,140.591,-440.4,-9.06,3261
1793.55,140.701,-438,-8.67,3262
1794.1,140.809,-440.1,-9.02,3263
1794.65,140.919,-440.8,-9.13,3264
1795.2,141.03,-441,-9.17,3265
1795.75,141.142,-438.5,-8.76,3266
1796.3,141.25,-439,-8.84,3267
1796.85,141.359,-436.2,-8.38,3268
1797.4,141.464,-438.8,-8.81,3269
1797.95,141.573,-442,-9.33,3270
1798.5,141.686,-433.9,-8,3271
1799.05,141.787,-433.6,-7.95,3272
1799.6,141.888,-437,-8.51,3273
1800.15,141.993,-432.8,-7.82,3274
1800.7,142.093,-436.4,-8.42,3275
1801.25,142.198,-438.6,-8.78,3276
1801.8,142.307,-441.7,-9.29,3277
1802.35,142.42,-437.6,-8.61,3278
1802.9,142.528,-438.2,-8.71,3279
1803.45,142.636,-434.8,-8.15,3280
1804,142.739,-435.5,-8.27,3281
1804.55,142.843,-431.8,-7.66,3282
1805.1,142.941,-435.3,-8.23,3283
1805.65,143.045,-439.4,-8.91,3284
1806.2,143.156,-439,-8.84,3285
1806.75,143.266,-440.2,-9.04,3286
1807.3,143.377,-434.1,-8.04,3287
1807.85,143.479,-430.8,-7.5,3288
1808.4,143.578,-437,-8.51,3289
1808.95,143.684,-440.6,-9.1,3290
1809.5,143.796,-436,-8.35,3291
1810.05,143.903,-440.5,-9.09,3292
1810.6,144.015,-439.2,-8.87,3293
1811.15,144.125,-434.3,-8.07,3294
1811.7,144.229,-431.7,-7.64,3295
1812.25,144.328,-435.7,-8.3,3296
1812.8,144.433,-436,-8.34,3297
1813.35,144.538,-436.8,-8.47,3298
1813.9,144.645,-433.5,-7.93,3299
1814.45,144.748,-436.8,-8.47,3300
1815,144.854,-435.6,-8.27,3301
1815.55,144.959,-433.4,-7.91,3302
1816.1,145.063,-439.8,-8.96,3303
1816.65,145.173,-435.3,-8.22,3304
1817.2,145.279,-434.6,-8.1,3305
1817.75,145.382,-433.5,-7.92,3306
1818.3,145.485,-440,-8.99,3307
1818.85,145.597,-436.4,-8.39,3308
1819.4,145.705,-438.9,-8.8,3309
1819.95,145.816,-441.9,-9.29,3310
1820.5,145.932,-439,-8.82,3311
1821.05,146.043,-430.3,-7.38,3312
1821.6,146.141,-434.6,-8.09,3313
1822.15,146.245,-437,-8.48,3314
1822.7,146.353,-436.1,-8.33,3315
1823.25,146.459,-433.9,-7.97,3316
1823.8,146.563,-435.2,-8.18,3317
1824.35,146.665,-426.9,-6.82,3318
1824.9,146.753,-436.1,-8.33,3319
1825.45,146.857,-432,-7.65,3320
1826,146.958,-433.5,-7.9,3321
1826.55,147.06,-431.3,-7.54,3322
1827.1,147.161,-435.7,-8.26,3323
1827.65,147.267,-437.9,-8.62,3324
1828.2,147.376,-438.9,-8.78,3325
1828.75,147.488,-439.5,-8.87,3326
1829.3,147.6,-437.2,-8.49,3327
1829.85,147.71,-439.1,-8.8,3328
1830.4,147.821,-434.7,-8.07,3329
1830.95,147.926,-430.2,-7.33,3330
1831.5,148.024,-430.3,-7.35,3331
1832.05,148.123,-435.5,-8.2,3332
1832.6,148.228,-432.2,-7.66,3333
1833.15,148.327,-429.1,-7.15,3334
1833.7,148.424,-433.9,-7.94,3335
1834.25,148.527,-435.2,-8.15,3336
1834.8,148.633,-436.6,-8.38,3337
1835.35,148.741,-436.2,-8.31,3338
1835.9,148.849,-432.2,-7.65,3339
1836.45,148.951,-435.2,-8.14,3340
1837,149.057,-436.2,-8.31,3341
1837.55,149.164,-434.9,-8.09,3342
1838.1,149.27,-437.3,-8.49,3343
1838.65,149.379,-433.5,-7.86,3344
1839.2,149.483,-433.5,-7.86,3345
1839.75,149.586,-427.7,-6.91,3346
1840.3,149.682,-433.4,-7.84,3347
1840.85,149.784,-427.8,-6.92,3348
1841.4,149.88,-429.1,-7.14,3349
1841.95,149.976,-428.3,-7,3350
1842.5,150.072,-428,-6.96,3351
1843.05,150.167,-427.8,-6.92,3352
1843.6,150.263,-429.3,-7.17,3353
1844.15,150.36,-428.5,-7.04,3354
1844.7,150.456,-431.6,-7.55,3355
1845.25,150.557,-431.6,-7.55,3356
1845.8,150.658,-430.2,-7.31,3357
1846.35,150.757,-431.5,-7.53,3358
1846.9,150.857,-430.9,-7.43,3359
1847.45,150.958,-432.3,-7.66,3360
1848,151.06,-433,-7.77,3361
1848.55,151.163,-430.9,-7.42,3362
1849.1,151.263,-429.3,-7.16,3363
1849.65,151.362,-435.1,-8.11,3364
1850.2,151.467,-428.4,-7.01,3365
1850.75,151.565,-432,-7.6,3366
1851.3,151.667,-432.6,-7.7,3367
1851.85,151.77,-432.3,-7.65,3368
1852.4,151.872,-433,-7.76,3369
1852.95,151.976,-433.3,-7.81,3370
1853.5,152.081,-434,-7.93,3371
1854.05,152.186,-432.1,-7.61,3372
1854.6,152.289,-431,-7.43,3373
1855.15,152.389,-432.4,-7.66,3374
1855.7,152.493,-430.8,-7.4,3375
1856.25,152.593,-429.4,-7.17,3376
1856.8,152.689,-431.1,-7.45,3377
1857.35,152.791,-435.3,-8.14,3378
1857.9,152.898,-433.4,-7.83,3379
1858.45,152.991,-433.7,-7.88,3380
1859,153.096,-433.7,-7.88,3381
1859.55,153.202,-434.9,-8.07,3382
1860.1,153.31,-438.4,-8.65,3383
1860.65,153.423,-433.9,-7.91,3384
1861.2,153.53,-433.8,-7.89,3385
1861.75,153.636,-432.3,-7.64,3386
1862.3,153.741,-434.3,-7.97,3387
1862.85,153.848,-436.7,-8.36,3388
1863.4,153.96,-441.2,-9.1,3389
1863.95,154.078,-440.6,-9,3390
1864.5,154.196,-434.7,-8.03,3391
1865.05,154.305,-435.7,-8.19,3392
1865.6,154.415,-437.2,-8.43,3393
1866.15,154.527,-438.4,-8.63,3394
1866.7,154.641,-442.4,-9.28,3395
1867.25,154.762,-440.9,-9.03,3396
1867.8,154.882,-439,-8.72,3397
1868.35,154.998,-441.3,-9.09,3398
1868.9,155.117,-440.3,-8.93,3399
1869.45,155.235,-437.6,-8.48,3400
1870,155.349,-437.9,-8.53,3401
1870.55,155.464,-442.3,-9.25,3402
1871.1,155.584,-436.9,-8.36,3403
1871.65,155.697,-437,-8.38,3404
1872.2,155.81,-438.5,-8.62,3405
1872.75,155.925,-440.7,-8.99,3406
1873.3,156.044,-446.4,-9.92,3407
1873.85,156.174,-447.1,-10.03,3408
1874.4,156.306,-444.3,-9.58,3409
1874.95,156.436,-439.5,-8.78,3410
1875.5,156.554,-440.6,-8.96,3411
1876.05,156.674,-444.6,-9.61,3412
1876.6,156.799,-438,-8.53,3413
1877.15,156.915,-440.5,-8.94,3414
1877.7,157.032,-439.5,-8.77,3415
1878.25,157.149,-438.7,-8.64,3416
1878.8,157.267,-444.1,-9.52,3417
1879.35,157.392,-441.9,-9.16,3418
1879.9,157.513,-436.5,-8.27,3419
1880.45,157.627,-437.4,-8.41,3420
1881,157.742,-439.8,-8.82,3421
1881.55,157.856,-437.8,-8.48,3422
1882.1,157.972,-441.2,-9.04,3423
1882.65,158.092,-440.7,-8.95,3424
1883.2,158.193,-441.1,-9.02,3425
1883.75,158.293,-445.4,-9.73,3426
1884.3,158.397,-441.4,-9.07,3427
1884.85,158.497,-435.6,-8.11,3428
1885.4,158.607,-434.4,-7.92,3429
1885.95,158.713,-432.3,-7.57,3430
1886.5,158.813,-430.6,-7.29,3431
1887.05,158.911,-423.1,-6.06,3432
1887.6,159.01,-425.9,-6.52,3433
1888.15,159.105,-421.1,-5.74,3434
1888.7,159.2,-427.9,-6.86,3435
1889.25,159.298,-431.7,-7.49,3436
1889.8,159.387,-428.7,-6.99,3437
1890.35,159.49,-428.3,-6.93,3438
1890.9,159.588,-430.5,-7.3,3439
1891.45,159.692,-431,-7.38,3440
1892,159.796,-432.2,-7.58,3441
1892.55,159.897,-434.5,-7.96,3442
1893.1,160.002,-431.5,-7.46,3443
1893.65,160.106,-431.5,-7.47,3444
1894.2,160.209,-431,-7.39,3445
1894.75,160.323,-432.9,-7.7,3446
1895.3,160.432,-432.1,-7.57,3447
1895.85,160.539,-432.1,-7.57,3448
1896.4,160.644,-435.7,-8.17,3449
1896.95,160.756,-434.8,-8.02,3450
1897.5,160.868,-435.3,-8.1,3451
1898.05,160.981,-436.1,-8.23,3452
1898.6,161.097,-434.7,-8,3453
1899.15,161.21,-441,-9.04,3454
1899.7,161.33,-440,-8.87,3455
1900.25,161.443,-435.5,-8.13,3456
1900.8,161.558,-430.1,-7.24,3457
1901.35,161.663,-428.2,-6.93,3458
1901.9,161.764,-431.9,-7.54,3459
1902.45,161.877,-427,-6.73,3460
1903,161.974,-426.3,-6.62,3461
1903.55,162.077,-424.9,-6.39,3462
1904.1,162.178,-425.4,-6.47,3463
1904.65,162.278,-423.8,-6.21,3464
1905.2,162.375,-428,-6.91,3465
1905.75,162.476,-423.5,-6.17,3466
1906.3,162.57,-430.5,-7.32,3467
1906.85,162.672,-433.5,-7.82,3468
1907.4,162.775,-427.5,-6.83,3469
1907.95,162.877,-428.3,-6.97,3470
1908.5,162.979,-427.8,-6.88,3471
1909.05,163.08,-428,-6.92,3472
1909.6,163.182,-431.2,-7.45,3473
1910.15,163.289,-429.2,-7.12,3474
1910.7,163.393,-438.1,-8.58,3475
1911.25,163.506,-437.7,-8.52,3476
1911.8,163.623,-430.9,-7.4,3477
1912.35,163.73,-429.2,-7.12,3478
1912.9,163.835,-437,-8.4,3479
1913.45,163.953,-442.4,-9.28,3480
1914,164.074,-440.3,-8.93,3481
1914.55,164.198,-443.7,-9.49,3482
1915.1,164.328,-441.5,-9.12,3483
1915.65,164.453,-437,-8.38,3484
1916.2,164.572,-438.5,-8.62,3485
1916.75,164.692,-439.3,-8.75,3486
1917.3,164.814,-438,-8.54,3487
1917.85,164.934,-436.3,-8.25,3488
1918.4,165.051,-442,-9.19,3489
1918.95,165.177,-440.4,-8.92,3490
1919.5,165.297,-438.7,-8.64,3491
1920.05,165.417,-433.4,-7.77,3492
1920.6,165.53,-436,-8.19,3493
1921.15,165.646,-439.3,-8.73,3494
1921.7,165.768,-437.2,-8.39,3495
1922.25,165.887,-436,-8.19,3496
1922.8,166.003,-434.9,-8,3497
1923.35,166.119,-441.5,-9.08,3498
1923.9,166.245,-438.2,-8.54,3499
1924.45,166.358,-435.8,-8.15,3500
1925,166.474,-432.7,-7.63,3501
1925.55,166.585,-438.6,-8.6,3502
1926.1,166.706,-437,-8.34,3503
1926.65,166.824,-440.3,-8.88,3504
1927.2,166.941,-431.2,-7.38,3505
1927.75,167.05,-432.6,-7.61,3506
1928.3,167.161,-432.2,-7.54,3507
1928.85,167.271,-432.3,-7.56,3508
1929.4,167.38,-431,-7.34,3509
1929.95,167.482,-428.8,-6.98,3510
1930.5,167.586,-434.7,-7.95,3511
1931.05,167.7,-431.4,-7.41,3512
1931.6,167.809,-429.9,-7.16,3513
1932.15,167.915,-424.8,-6.32,3514
1932.7,168.015,-427.6,-6.79,3515
1933.25,168.117,-423.2,-6.06,3516
1933.8,168.213,-421.8,-5.83,3517
1934.35,168.309,-427.4,-6.76,3518
1934.9,168.413,-429.4,-7.09,3519
1935.45,168.516,-425.6,-6.46,3520
1936,168.616,-426.9,-6.68,3521
1936.55,168.719,-435.8,-8.14,3522
1937.1,168.83,-434.3,-7.89,3523
1937.65,168.937,-425.6,-6.46,3524
1938.2,169.038,-426.3,-6.58,3525
1938.75,169.139,-425.8,-6.49,3526
1939.3,169.239,-427.6,-6.79,3527
1939.85,169.343,-432.1,-7.53,3528
1940.4,169.453,-432.7,-7.63,3529
1940.95,169.565,-432.2,-7.54,3530
1941.5,169.675,-426.7,-6.64,3531
1942.05,169.778,-426.4,-6.59,3532
1942.6,169.881,-435.2,-8.03,3533
1943.15,169.996,-432.9,-7.65,3534
1943.7,170.109,-434.5,-7.91,3535
1944.25,170.226,-435.8,-8.13,3536
1944.8,170.343,-436.9,-8.31,3537
1945.35,170.457,-435.8,-8.12,3538
1945.9,170.569,-436.7,-8.27,3539
1946.45,170.682,-435.8,-8.12,3540
1947,170.799,-436.2,-8.18,3541
1947.55,170.916,-437.8,-8.44,3542
1948.1,171.036,-438.6,-8.56,3543
1948.65,171.157,-436,-8.13,3544
1949.2,171.275,-436.9,-8.28,3545
1949.75,171.395,-431.6,-7.4,3546
1950.3,171.505,-429,-6.97,3547
1950.85,171.61,-426.4,-6.55,3548
1951.4,171.712,-423.3,-6.03,3549
1951.95,171.81,-427,-6.64,3550
1952.5,171.912,-422.6,-5.92,3551
1953.05,172.009,-422.1,-5.84,3552
1953.6,172.106,-427.2,-6.68,3553
1954.15,172.208,-423.7,-6.1,3554
1954.7,172.308,-429.8,-7.1,3555
1955.25,172.415,-427.7,-6.76,3556
1955.8,172.52,-431.9,-7.45,3557
1956.35,172.632,-427.5,-6.71,3558
1956.9,172.749,-432,-7.46,3559
1957.45,172.861,-433.1,-7.64,3560
1958,172.976,-438.1,-8.46,3561
1958.55,173.097,-431.7,-7.4,3562
1959.1,173.21,-436.2,-8.14,3563
1959.65,173.329,-433,-7.61,3564
1960.2,173.443,-436.4,-8.17,3565
1960.75,173.565,-436.5,-8.18,3566
1961.3,173.685,-439.7,-8.7,3567
1961.85,173.811,-437.4,-8.32,3568
1962.4,173.933,-435.9,-8.07,3569
1962.95,174.053,-435.4,-7.99,3570
1963.5,174.171,-436.2,-8.12,3571
1964.05,174.291,-434.4,-7.81,3572
1964.6,174.41,-437.8,-8.38,3573
1965.15,174.528,-432.8,-7.56,3574
1965.7,174.643,-435.4,-7.98,3575
1966.25,174.761,-431.7,-7.37,3576
1966.8,174.874,-434.7,-7.87,3577
1967.35,174.991,-438,-8.41,3578
1967.9,175.113,-432.2,-7.46,3579
1968.45,175.228,-433.2,-7.62,3580
1969,175.343,-435.2,-7.95,3581
1969.55,175.461,-436.4,-8.15,3582
1970.1,175.582,-440.9,-8.89,3583
1970.65,175.712,-440.8,-8.87,3584
1971.2,175.842,-443,-9.23,3585
1971.75,175.976,-439.2,-8.6,3586
1972.3,176.103,-438.8,-8.53,3587
1972.85,176.229,-439.7,-8.68,3588
1973.4,176.357,-440.9,-8.87,3589
1973.95,176.487,-437.3,-8.28,3590
1974.5,176.61,-437.3,-8.28,3591
1975.05,176.728,-436.3,-8.11,3592
1975.6,176.848,-429.2,-6.94,3593
1976.15,176.958,-428.3,-6.79,3594
1976.7,177.065,-421.1,-5.61,3595
1977.25,177.165,-425.5,-6.33,3596
1977.8,177.268,-428.6,-6.84,3597
1978.35,177.375,-428.1,-6.76,3598
1978.9,177.478,-427.2,-6.61,3599
1979.45,177.584,-435.2,-7.93,3600
1980,177.701,-422.5,-5.84,3601
1980.55,177.801,-421.7,-5.71,3602
1981.1,177.899,-419.8,-5.4,3603
1981.65,177.994,-423.4,-5.99,3604
1982.2,178.095,-422.5,-5.85,3605
1982.75,178.195,-425.4,-6.32,3606
1983.3,178.298,-426.7,-6.54,3607
1983.85,178.404,-427.6,-6.69,3608
1984.4,178.511,-423,-5.93,3609
1984.95,178.613,-429.5,-7,3610
1985.5,178.722,-429,-6.92,3611
1986.05,178.832,-429.8,-7.05,3612
1986.6,178.944,-432.3,-7.46,3613
1987.15,179.06,-435.8,-8.03,3614
1987.7,179.182,-439.7,-8.68,3615
1988.25,179.308,-436.6,-8.16,3616
1988.8,179.432,-440.7,-8.83,3617
1989.35,179.562,-439.2,-8.58,3618
1989.9,179.694,-436.9,-8.2,3619
1990.45,179.819,-430.4,-7.13,3620
1991,179.934,-441.5,-8.95,3621
1991.55,180.063,-438.1,-8.39,3622
1992.1,180.191,-432.5,-7.47,3623
1992.65,180.309,-437.3,-8.26,3624
1993.2,180.435,-439.4,-8.6,3625
1993.75,180.566,-439.9,-8.68,3626
1994.3,180.698,-441.9,-9.02,3627
1994.85,180.829,-436.4,-8.1,3628
1995.4,180.956,-438.8,-8.49,3629
1995.95,181.086,-437.6,-8.29,3630
1996.5,181.215,-441.9,-9,3631
1997.05,181.351,-440.6,-8.79,3632
1997.6,181.484,-437.8,-8.32,3633
1998.15,181.603,-442.4,-9.08,3634
1998.7,181.729,-442.3,-9.06,3635
1999.25,181.868,-439.2,-8.55,3636
1999.8,182.001,-443.4,-9.24,3637
2000.35,182.133,-441.3,-8.89,3638
2000.9,182.269,-436,-8.02,3639
2001.45,182.408,-439,-8.51,3640
2002,182.534,-438.4,-8.41,3641
2002.55,182.663,-441,-8.84,3642
2003.1,182.798,-440.4,-8.74,3643
2003.65,182.929,-441,-8.84,3644
2004.2,183.062,-440.6,-8.77,3645
2004.75,183.195,-443.4,-9.23,3646
2005.3,183.332,-437.9,-8.32,3647
2005.85,183.461,-443.6,-9.26,3648
2006.4,183.598,-443.3,-9.2,3649
2006.95,183.74,-441.1,-8.84,3650
2007.5,183.877,-437.9,-8.31,3651
2008.05,184.009,-439.4,-8.55,3652
2008.6,184.143,-438.2,-8.35,3653
2009.15,184.276,-442.4,-9.04,3654
2009.7,184.416,-441.1,-8.82,3655
2010.25,184.554,-438.8,-8.43,3656
2010.8,184.688,-443.2,-9.15,3657
2011.35,184.831,-440.2,-8.66,3658
2011.9,184.968,-438.4,-8.35,3659
2012.45,185.101,-435.5,-7.87,3660
2013,185.229,-433.3,-7.51,3661
2013.55,185.353,-439.3,-8.5,3662
2014.1,185.487,-438.8,-8.41,3663
2014.65,185.622,-437.7,-8.22,3664
2015.2,185.755,-438.4,-8.34,3665
2015.75,185.888,-435.7,-7.89,3666
2016.3,186.017,-435.4,-7.84,3667
2016.85,186.145,-435,-7.77,3668
2017.4,186.273,-434.3,-7.65,3669
2017.95,186.398,-434.6,-7.69,3670
2018.5,186.512,-432.4,-7.33,3671
2019.05,186.634,-427.2,-6.47,3672
2019.6,186.748,-430.6,-7.03,3673
2020.15,186.867,-428.9,-6.75,3674
2020.7,186.984,-428.2,-6.63,3675
2021.25,187.099,-428.2,-6.63,3676
2021.8,187.214,-421.6,-5.54,3677
2022.35,187.32,-422.1,-5.62,3678
2022.9,187.425,-423.4,-5.83,3679
2023.45,187.532,-418.9,-5.09,3680
2024,187.633,-418.5,-5.02,3681
2024.55,187.732,-414.6,-4.38,3682
2025.1,187.826,-411.6,-3.89,3683
2025.65,187.916,-414.2,-4.32,3684
2026.2,188.009,-412.4,-4.03,3685
2026.75,188.102,-422.5,-5.69,3686
2027.3,188.207,-422.5,-5.69,3687
2027.85,188.314,-422.2,-5.64,3688
2028.4,188.422,-421.8,-5.57,3689
2028.95,188.528,-427.9,-6.58,3690
2029.5,188.644,-425.1,-6.12,3691
2030.05,188.757,-425.6,-6.2,3692
2030.6,188.872,-428.2,-6.62,3693
2031.15,188.989,-421.1,-5.45,3694
2031.7,189.095,-425.1,-6.11,3695
2032.25,189.207,-425.1,-6.11,3696
2032.8,189.32,-428.9,-6.73,3697
2033.35,189.439,-428.9,-6.73,3698
2033.9,189.558,-426.1,-6.27,3699
2034.45,189.674,-427.6,-6.51,3700
2035,189.791,-428.5,-6.66,3701
2035.55,189.911,-433.2,-7.43,3702
2036.1,190.039,-426.4,-6.31,3703
2036.65,190.155,-428.9,-6.71,3704
2037.2,190.276,-430.8,-7.02,3705
2037.75,190.4,-436.7,-7.99,3706
2038.3,190.536,-436.9,-8.01,3707
2038.85,190.672,-431.3,-7.08,3708
2039.4,190.799,-437.3,-8.06,3709
2039.95,190.936,-430.7,-6.97,3710
2040.5,191.061,-432,-7.18,3711
2041.05,191.188,-432.6,-7.27,3712
2041.6,191.316,-429.4,-6.74,3713
2042.15,191.44,-430.5,-6.91,3714
2042.7,191.564,-426.7,-6.28,3715
2043.25,191.682,-430.7,-6.93,3716
2043.8,191.806,-421.9,-5.48,3717
2044.35,191.917,-423.5,-5.74,3718
2044.9,192.026,-417.5,-4.75,3719
2045.45,192.127,-418.7,-4.94,3720
2046,192.231,-417.1,-4.67,3721
2046.55,192.332,-417.7,-4.77,3722
2047.1,192.435,-428.3,-6.51,3723
2047.65,192.556,-425,-5.96,3724
2048.2,192.672,-429.2,-6.64,3725
2048.75,192.795,-426.4,-6.17,3726
2049.3,192.913,-425.5,-6.02,3727
2049.85,193.029,-422,-5.43,3728
2050.4,193.14,-429,-6.58,3729
2050.95,193.264,-434.5,-7.47,3730
2051.5,193.396,-429.3,-6.6,3731
2052.05,193.521,-430.3,-6.75,3732
2052.6,193.646,-430.7,-6.81,3733
2053.15,193.77,-431.9,-6.99,3734
2053.7,193.897,-427.3,-6.22,3735
2054.25,194.019,-433.7,-7.26,3736
2054.8,194.149,-425.8,-5.95,3737
2055.35,194.269,-431,-6.79,3738
2055.9,194.395,-427.5,-6.2,3739
2056.45,194.515,-427.6,-6.21,3740
2057,194.636,-426.3,-5.98,3741
2057.55,194.754,-424.5,-5.67,3742
2058.1,194.87,-430,-6.57,3743
2058.65,194.994,-422.6,-5.34,3744
2059.2,195.105,-419.9,-4.88,3745
2059.75,195.213,-422.8,-5.35,3746
2060.3,195.324,-421.1,-5.06,3747
2060.85,195.434,-421.1,-5.05,3748
2061.4,195.545,-423,-5.35,3749
2061.95,195.642,-417.7,-4.47,3750
2062.5,195.743,-421.9,-5.15,3751
2063.05,195.853,-420.5,-4.91,3752
2063.6,195.961,-420.7,-4.93,3753
2064.15,196.068,-413.9,-3.8,3754
2064.7,196.168,-421,-4.96,3755
2065.25,196.275,-418.6,-4.56,3756
2065.8,196.378,-420.7,-4.9,3757
2066.35,196.483,-417.7,-4.39,3758
2066.9,196.579,-420.3,-4.81,3759
2067.45,196.686,-419,-4.59,3760
2068,196.792,-416.7,-4.2,3761
2068.55,196.893,-415.3,-3.96,3762
2069.1,196.993,-414.8,-3.87,3763
2069.65,197.092,-413.7,-3.68,3764
2070.2,197.189,-410.9,-3.2,3765
2070.75,197.282,-412.3,-3.43,3766
2071.3,197.377,-413.2,-3.57,3767
2071.85,197.474,-413.3,-3.57,3768
2072.4,197.569,-409.9,-3,3769
2072.95,197.656,-408.5,-2.76,3770
2073.5,197.745,-410.6,-3.1,3771
2074.05,197.838,-409.5,-2.92,3772
2074.6,197.929,-409.2,-2.86,3773
2075.15,198.019,-408.1,-2.67,3774
2075.7,198.108,-405,-2.16,3775
2076.25,198.193,-407.7,-2.6,3776
2076.8,198.282,-413.9,-3.61,3777
2077.35,198.376,-407.7,-2.58,3778
2077.9,198.465,-408.7,-2.74,3779
2078.45,198.554,-402.5,-1.71,3780
2079,198.636,-403.1,-1.81,3781
2079.55,198.715,-406,-2.29,3782
2080.1,198.8,-409.5,-2.86,3783
2080.65,198.891,-407.4,-2.51,3784
2081.2,198.979,-405.5,-2.19,3785
2081.75,199.065,-405.9,-2.25,3786
2082.3,199.151,-406.7,-2.38,3787
2082.85,199.238,-404.7,-2.04,3788
2083.4,199.323,-407.2,-2.46,3789
2083.95,199.41,-405.5,-2.17,3790
2084.5,199.497,-406.2,-2.28,3791
2085.05,199.583,-408.4,-2.64,3792
2085.6,199.673,-408.7,-2.68,3793
2086.15,199.762,-400.8,-1.37,3794
2086.7,199.843,-403,-1.73,3795
2087.25,199.926,-404.2,-1.93,3796
2087.8,200.01,-406.4,-2.29,3797
2088.35,200.096,-402.5,-1.65,3798
2088.9,200.179,-408,-2.55,3799
2089.45,200.268,-408.5,-2.63,3800
2090,200.358,-407.3,-2.43,3801
2090.55,200.448,-407.5,-2.47,3802
2091.1,200.537,-407.2,-2.41,3803
2091.65,200.624,-403.1,-1.73,3804
2092.2,200.708,-406,-2.21,3805
2092.75,200.795,-405.5,-2.13,3806
2093.3,200.881,-406.3,-2.26,3807
2093.85,200.969,-406.5,-2.29,3808
2094.4,201.056,-401.2,-1.42,3809
2094.95,201.138,-411.8,-3.17,3810
2095.5,201.233,-407.8,-2.51,3811
2096.05,201.324,-405.4,-2.1,3812
2096.6,201.409,-403.4,-1.78,3813
2097.15,201.493,-402.8,-1.68,3814
2097.7,201.577,-407.7,-2.5,3815
2098.25,201.667,-410.4,-2.94,3816
2098.8,201.76,-410.4,-2.94,3817
2099.35,201.854,-412.1,-3.22,3818
2099.9,201.95,-410.3,-2.92,3819
2100.45,202.045,-416.1,-3.88,3820
2101,202.147,-415,-3.7,3821
2101.55,202.249,-415,-3.69,3822
2102.1,202.35,-412.3,-3.24,3823
2102.65,202.447,-415,-3.69,3824
2103.2,202.549,-418.9,-4.33,3825
2103.75,202.656,-417.8,-4.14,3826
2104.3,202.762,-414.4,-3.58,3827
2104.85,202.864,-421,-4.67,3828
2105.4,202.975,-422.6,-4.93,3829
2105.95,203.089,-421.3,-4.71,3830
2106.5,203.201,-418.4,-4.22,3831
2107.05,203.31,-424,-5.14,3832
2107.6,203.426,-417.8,-4.11,3833
2108.15,203.534,-421.6,-4.74,3834
2108.7,203.647,-422.1,-4.82,3835
2109.25,203.761,-420.1,-4.48,3836
2109.8,203.871,-418.5,-4.21,3837
2110.35,203.98,-422.8,-4.92,3838
2110.9,204.097,-422,-4.78,3839
2111.45,204.211,-417.9,-4.09,3840
2112,204.319,-419.4,-4.34,3841
2112.55,204.428,-417.5,-4.02,3842
2113.1,204.537,-413.4,-3.34,3843
2113.65,204.637,-417,-3.93,3844
2114.2,204.743,-420.7,-4.54,3845
2114.75,204.854,-417.3,-3.97,3846
2115.3,204.961,-413.3,-3.31,3847
2115.85,205.061,-414.1,-3.43,3848
2116.4,205.164,-413.6,-3.35,3849
2116.95,205.264,-413.9,-3.4,3850
2117.5,205.365,-413.9,-3.4,3851
2118.05,205.465,-409.5,-2.67,3852
2118.6,205.562,-416.9,-3.89,3853
2119.15,205.665,-411.5,-3,3854
2119.7,205.764,-411.6,-3.02,3855
2120.25,205.862,-414,-3.41,3856
2120.8,205.963,-414.7,-3.53,3857
2121.35,206.065,-413.3,-3.29,3858
2121.9,206.166,-413,-3.24,3859
2122.45,206.266,-411.6,-3.01,3860
2123,206.364,-409.1,-2.6,3861
2123.55,206.458,-406.8,-2.22,3862
2124.1,206.552,-411.9,-3.06,3863
2124.65,206.649,-412.9,-3.23,3864
2125.2,206.749,-410,-2.75,3865
2125.75,206.845,-416.2,-3.77,3866
2126.3,206.949,-411.4,-2.98,3867
2126.85,207.048,-410.9,-2.89,3868
2127.4,207.144,-411.2,-2.94,3869
2127.95,207.242,-412,-3.08,3870
2128.5,207.341,-413.2,-3.27,3871
2129.05,207.441,-410.1,-2.76,3872
2129.6,207.537,-411.4,-2.98,3873
2130.15,207.634,-408.3,-2.46,3874
2130.7,207.724,-407.8,-2.39,3875
2131.25,207.815,-407.2,-2.29,3876
2131.8,207.908,-410.7,-2.87,3877
2132.35,208.004,-407.6,-2.35,3878
2132.9,208.097,-407.9,-2.41,3879
2133.45,208.19,-406.5,-2.19,3880
2134,208.281,-409.1,-2.62,3881
2134.55,208.376,-409,-2.61,3882
2135.1,208.471,-409.8,-2.74,3883
2135.65,208.566,-405,-1.95,3884
2136.2,208.655,-403.4,-1.69,3885
2136.75,208.743,-406.7,-2.24,3886
2137.3,208.834,-407.5,-2.38,3887
2137.85,208.926,-403,-1.64,3888
2138.4,209.013,-403.2,-1.67,3889
2138.95,209.1,-407.1,-2.32,3890
2139.5,209.192,-403.9,-1.8,3891
2140.05,209.28,-408.3,-2.53,3892
2140.6,209.374,-406.2,-2.19,3893
2141.15,209.464,-401.4,-1.4,3894
2141.7,209.55,-407.4,-2.39,3895
2142.25,209.642,-401.7,-1.46,3896
2142.8,209.728,-406.4,-2.24,3897
2143.35,209.818,-401,-1.35,3898
2143.9,209.904,-403.5,-1.77,3899
2144.45,209.991,-401.8,-1.49,3900
2145,210.076,-403.9,-1.84,3901
2145.55,210.157,-394.2,-0.24,3902
2146.1,210.234,-401.1,-1.39,3903
2146.65,210.319,-402,-1.55,3904
2147.2,210.404,-400.3,-1.27,3905
2147.75,210.488,-400.4,-1.29,3906
2148.3,210.572,-405.9,-2.21,3907
2148.85,210.658,-403.4,-1.8,3908
2149.4,210.746,-407.2,-2.43,3909
2149.95,210.838,-404.6,-2.01,3910
2150.5,210.927,-399.2,-1.12,3911
2151.05,211.01,-399.1,-1.11,3912
2151.6,211.092,-403,-1.76,3913
2152.15,211.18,-406.4,-2.33,3914
2152.7,211.27,-398.8,-1.07,3915
2153.25,211.354,-400.7,-1.39,3916
2153.8,211.438,-404.7,-2.06,3917
2154.35,211.527,-404.6,-2.05,3918
2154.9,211.616,-407.2,-2.48,3919
2155.45,211.701,-404.3,-2.01,3920
2156,211.786,-406.3,-2.34,3921
2156.55,211.878,-404.4,-2.03,3922
2157.1,211.967,-402.6,-1.74,3923
2157.65,212.055,-404.2,-2.01,3924
2158.2,212.143,-401.1,-1.5,3925
2158.75,212.229,-408.6,-2.75,3926
2159.3,212.324,-404.9,-2.14,3927
2159.85,212.415,-407.8,-2.62,3928
2160.4,212.509,-407.6,-2.59,3929
2160.95,212.603,-405.6,-2.27,3930
2161.5,212.692,-402.8,-1.81,3931
2162.05,212.779,-403.9,-1.99,3932
2162.6,212.868,-403.9,-2,3933
2163.15,212.957,-405.7,-2.3,3934
2163.7,213.048,-403.2,-1.89,3935
2164.25,213.136,-401.3,-1.58,3936
2164.8,213.223,-406.1,-2.38,3937
2165.35,213.314,-403.5,-1.96,3938
2165.9,213.403,-403.3,-1.93,3939
2166.45,213.491,-408.2,-2.75,3940
2167,213.583,-407.9,-2.7,3941
2167.55,213.678,-409.8,-3.02,3942
2168.1,213.775,-403.5,-1.98,3943
2168.65,213.864,-400,-1.41,3944
2169.2,213.949,-402.1,-1.76,3945
2169.75,214.036,-407.6,-2.67,3946
2170.3,214.127,-406.5,-2.5,3947
2170.85,214.219,-402.6,-1.86,3948
2171.4,214.308,-407,-2.59,3949
2171.95,214.401,-403.9,-2.09,3950
2172.5,214.491,-402.2,-1.81,3951
2173.05,214.58,-403.2,-1.98,3952
2173.6,214.667,-402.8,-1.92,3953
2174.15,214.756,-402.2,-1.83,3954
2174.7,214.843,-399.5,-1.39,3955
2175.25,214.924,-404.6,-2.25,3956
2175.8,215.011,-397,-1,3957
2176.35,215.093,-399.4,-1.39,3958
2176.9,215.176,-398,-1.17,3959
2177.45,215.258,-401.6,-1.77,3960
2178,215.342,-400.8,-1.64,3961
2178.55,215.428,-401,-1.7,3962
2179.1,215.514,-399.6,-1.46,3963
2179.65,215.599,-404.3,-2.25,3964
2180.2,215.687,-402.8,-2.01,3965
2180.75,215.776,-405.8,-2.51,3966
2181.3,215.866,-404,-2.22,3967
2181.85,215.956,-405,-2.39,3968
2182.4,216.049,-405.6,-2.5,3969
2182.95,216.142,-408,-2.9,3970
2183.5,216.238,-409.7,-3.19,3971
2184.05,216.338,-407.4,-2.82,3972
2184.6,216.434,-407.8,-2.89,3973
2185.15,216.531,-407.1,-2.78,3974
2185.7,216.627,-408.1,-2.95,3975
2186.25,216.725,-412.7,-3.72,3976
2186.8,216.828,-412.7,-3.72,3977
2187.35,216.93,-414.6,-4.04,3978
2187.9,217.038,-415,-4.11,3979
2188.45,217.147,-414.3,-4,3980
2189,217.255,-417,-4.45,3981
2189.55,217.367,-414.2,-4,3982
2190.1,217.475,-411.2,-3.5,3983
2190.65,217.58,-419.4,-4.87,3984
2191.2,217.696,-418.8,-4.77,3985
2191.75,217.812,-418.1,-4.66,3986
2192.3,217.927,-415.5,-4.23,3987
2192.85,218.038,-422.5,-5.39,3988
2193.4,218.163,-425.4,-5.88,3989
2193.95,218.292,-420.1,-5,3990
2194.5,218.412,-421.6,-5.25,3991
2195.05,218.534,-422.8,-5.45,3992
2195.6,218.66,-421,-5.16,3993
2196.15,218.782,-421.4,-5.23,3994
2196.7,218.904,-418.8,-4.8,3995
2197.25,219.022,-419.8,-4.96,3996
2197.8,219.14,-425.3,-5.88,3997
2198.35,219.27,-423,-5.51,3998
2198.9,219.394,-420.4,-5.08,3999
2199.45,219.515,-421.6,-5.29,4000
2200,219.637,-426.6,-6.11,4001
2200.55,219.771,-425.8,-5.98,4002
2201.1,219.904,-426.4,-6.08,4003
2201.65,220.04,-424,-5.69,4004
2202.2,220.17,-427.9,-6.34,4005
2202.75,220.306,-427.9,-6.34,4006
2203.3,220.444,-431.2,-6.89,4007
2203.85,220.589,-428.9,-6.52,4008
2204.4,220.73,-431.3,-6.92,4009
2204.95,220.875,-430.2,-6.74,4010
2205.5,221.019,-431.5,-6.96,4011
2206.05,221.166,-434.6,-7.47,4012
2206.6,221.319,-431.9,-7.03,4013
2207.15,221.469,-442.4,-8.77,4014
2207.7,221.639,-438.7,-8.16,4015
2208.25,221.809,-434,-7.38,4016
2208.8,221.963,-431.7,-7.01,4017
2209.35,222.113,-435,-7.57,4018
2209.9,222.276,-438.1,-8.08,4019
2210.45,222.441,-438.8,-8.2,4020
2211,222.609,-438.5,-8.16,4021
2211.55,222.777,-437.9,-8.07,4022
2212.1,222.947,-441.8,-8.72,4023
2212.65,223.119,-438.3,-8.15,4024
2213.2,223.287,-441.6,-8.7,4025
2213.75,223.46,-437.3,-7.99,4026
2214.3,223.627,-441.5,-8.69,4027
2214.85,223.804,-440.7,-8.57,4028
2215.4,223.977,-441.2,-8.65,4029
2215.95,224.155,-437.7,-8.08,4030
2216.5,224.325,-440.6,-8.56,4031
2217.05,224.501,-437.6,-8.07,4032
2217.6,224.669,-437,-7.98,4033
2218.15,224.838,-437.2,-8.01,4034
2218.7,225.003,-433.8,-7.46,4035
2219.25,225.165,-435.6,-7.76,4036
2219.8,225.331,-436.8,-7.96,4037
2220.35,225.499,-428.1,-6.52,4038
2220.9,225.649,-428.8,-6.64,4039
2221.45,225.799,-427.1,-6.36,4040
2222,225.944,-425,-6.02,4041
2222.55,226.085,-420,-5.19,4042
2223.1,226.215,-416.1,-4.55,4043
2223.65,226.342,-425.7,-6.13,4044
2224.2,226.489,-423.4,-5.75,4045
2224.75,226.628,-428.1,-6.53,4046
2225.3,226.774,-426.4,-6.24,4047
2225.85,226.918,-423.6,-5.78,4048
2226.4,227.06,-427.9,-6.48,4049
2226.95,227.211,-427.6,-6.43,4050
2227.5,227.363,-433.3,-7.36,4051
2228.05,227.526,-434.6,-7.57,4052
2228.6,227.692,-435.9,-7.77,4053
2229.15,227.862,-432.6,-7.21,4054
2229.7,228.026,-436.4,-7.83,4055
2230.25,228.199,-439.4,-8.31,4056
2230.8,228.38,-438.7,-8.18,4057
2231.35,228.56,-439.7,-8.33,4058
2231.9,228.743,-438.7,-8.15,4059
2232.45,228.923,-438.6,-8.12,4060
2233,229.102,-435,-7.51,4061
2233.55,229.272,-433.4,-7.23,4062
2234.1,229.438,-425.2,-5.87,4063
2234.65,229.585,-427.7,-6.27,4064
2235.2,229.736,-419.4,-4.89,4065
2235.75,229.872,-431.8,-6.92,4066
2236.3,230.032,-429.4,-6.51,4067
2236.85,230.189,-429.6,-6.53,4068
2237.4,230.347,-436.7,-7.69,4069
2237.95,230.522,-437,-7.72,4070
2238.5,230.698,-436.3,-7.59,4071
2239.05,230.872,-434.7,-7.32,4072
2239.6,231.047,-435.7,-7.46,4073
2240.15,231.22,-433.6,-7.1,4074
2240.7,231.388,-432.3,-6.87,4075
2241.25,231.552,-431.2,-6.67,4076
2241.8,231.714,-430.5,-6.54,4077
2242.35,231.874,-427.3,-6,4078
2242.9,232.026,-427.2,-5.97,4079
2243.45,232.182,-424.3,-5.48,4080
2244,232.328,-428.5,-6.16,4081
2244.55,232.483,-427.7,-6.01,4082
2245.1,232.636,-428.2,-6.07,4083
2245.65,232.791,-428.4,-6.09,4084
2246.2,232.945,-426.6,-5.78,4085
2246.75,233.097,-428.2,-6.03,4086
2247.3,233.251,-426,-5.65,4087
2247.85,233.401,-427.1,-5.81,4088
2248.4,233.551,-420.9,-4.76,4089
2248.95,233.691,-423,-5.1,4090
2249.5,233.831,-422.1,-4.94,4091
2250.05,233.971,-420.5,-4.66,4092
2250.6,234.109,-421.4,-4.79,4093
2251.15,234.247,-422.3,-4.92,4094
2251.7,234.388,-422,-4.85,4095
2252.25,234.528,-422.4,-4.89,4096
2252.8,234.668,-420.3,-4.53,4097
2253.35,234.805,-420.9,-4.61,4098
2253.9,234.942,-413.7,-3.4,4099
2254.45,235.065,-416.7,-3.88,4100
2255,235.193,-414,-3.42,4101
2255.55,235.316,-414.1,-3.43,4102
2256.1,235.439,-414.7,-3.51,4103
2256.65,235.563,-413.2,-3.25,4104
2257.2,235.685,-417.5,-3.95,4105
2257.75,235.814,-415.5,-3.6,4106
2258.3,235.94,-413.8,-3.31,4107
2258.85,236.061,-410.4,-2.73,4108
2259.4,236.178,-406.5,-2.08,4109
2259.95,236.29,-412.9,-3.13,4110
2260.5,236.409,-409.8,-2.61,4111
2261.05,236.525,-411.3,-2.85,4112
2261.6,236.642,-406.9,-2.11,4113
2262.15,236.752,-411.3,-2.83,4114
2262.7,236.868,-408.8,-2.41,4115
2263.25,236.981,-411.2,-2.8,4116
2263.8,237.098,-412.8,-3.07,4117
2264.35,237.217,-408.7,-2.39,4118
2264.9,237.332,-409,-2.43,4119
2265.45,237.445,-407.2,-2.13,4120
2266,237.556,-411.8,-2.89,4121
2266.55,237.673,-410.9,-2.74,4122
2267.1,237.79,-410,-2.59,4123
2267.65,237.904,-406.4,-1.99,4124
2268.2,238.013,-406.5,-2.01,4125
2268.75,238.122,-409.2,-2.45,4126
2269.3,238.235,-412,-2.91,4127
2269.85,238.352,-407,-2.09,4128
2270.4,238.463,-408.5,-2.33,4129
2270.95,238.574,-405.6,-1.86,4130
2271.5,238.685,-409.5,-2.5,4131
2272.05,238.789,-403.9,-1.58,4132
2272.6,238.896,-405.1,-1.78,4133
2273.15,239,-404.3,-1.65,4134
2273.7,239.111,-408.9,-2.41,4135
2274.25,239.225,-408.7,-2.38,4136
2274.8,239.328,-402.8,-1.41,4137
2275.35,239.439,-408.7,-2.39,4138
2275.9,239.553,-410.1,-2.62,4139
2276.45,239.663,-407.9,-2.26,4140
2277,239.769,-405.5,-1.87,4141
2277.55,239.866,-397.6,-0.57,4142
2278.1,239.961,-400.9,-1.12,4143
2278.65,240.061,-403.7,-1.59,4144
2279.2,240.163,-400,-0.99,4145
2279.75,240.262,-400,-1,4146
2280.3,240.36,-398.3,-0.72,4147
2280.85,240.457,-400.3,-1.06,4148
2281.4,240.555,-401.2,-1.22,4149
2281.95,240.655,-398.7,-0.81,4150
2282.5,240.752,-395.3,-0.26,4151
2283.05,240.844,-396.8,-0.52,4152
2283.6,240.937,-397,-0.56,4153
2284.15,241.031,-393.6,-0.01,4154
2284.7,241.12,-391.7,0.29,4155
2285.25,241.207,-391.1,0.38,4156
2285.8,241.293,-391,0.38,4157
2286.35,241.378,-387,1.03,4158
2286.9,241.461,-392.6,0.09,4159
2287.45,241.547,-386,1.17,4160
2288,241.628,-389.9,0.51,4161
2288.55,241.711,-382.5,1.72,4162
2289.1,241.787,-377.9,2.46,4163
2289.65,241.858,-377.2,2.56,4164
2290.2,241.928,-379.3,2.2,4165
2290.75,241.999,-380.5,1.98,4166
2291.3,242.072,-375.9,2.73,4167
2291.85,242.141,-380.4,1.96,4168
2292.4,242.214,-378.8,2.21,4169
2292.95,242.286,-375.7,2.71,4170
2293.5,242.355,-378,2.31,4171
2294.05,242.425,-377.2,2.42,4172
2294.6,242.496,-379.3,2.06,4173
2295.15,242.568,-380.5,1.84,4174
2295.7,242.642,-380,1.91,4175
2296.25,242.715,-380,1.89,4176
2296.8,242.789,-384.8,1.08,4177
2297.35,242.867,-377.9,2.2,4178
2297.9,242.94,-380.2,1.81,4179
2298.45,243.014,-381.5,1.57,4180
2299,243.09,-384,1.14,4181
2299.55,243.169,-386.3,0.74,4182
2300.1,243.25,-386.9,0.63,4183
2300.65,243.333,-388.4,0.36,4184
2301.2,243.414,-384.4,1.01,4185
2301.75,243.495,-384.4,0.99,4186
2302.3,243.574,-383.1,1.19,4187
2302.85,243.653,-384.9,0.87,4188
2303.4,243.735,-388.8,0.21,4189
2303.95,243.821,-390.7,-0.12,4190
2304.5,243.909,-391.1,-0.21,4191
2305.05,243.999,-391.9,-0.36,4192
2305.6,244.089,-397.2,-1.25,4193
2306.15,244.187,-399.6,-1.66,4194
2306.7,244.289,-403.5,-2.32,4195
2307.25,244.398,-402.2,-2.13,4196
2307.8,244.505,-400.3,-1.83,4197
2308.35,244.609,-403.7,-2.41,4198
2308.9,244.718,-403.7,-2.42,4199
2309.45,244.828,-407.4,-3.05,4200
2310,244.944,-406,-2.83,4201
2310.55,245.059,-408.2,-3.21,4202
2311.1,245.177,-409.6,-3.45,4203
2311.65,245.298,-409.4,-3.43,4204
2312.2,245.42,-415.7,-4.49,4205
2312.75,245.552,-411.3,-3.77,4206
2313.3,245.677,-413.9,-4.22,4207
2313.85,245.808,-419,-5.07,4208
2314.4,245.948,-415,-4.42,4209
2314.95,246.082,-419.8,-5.22,4210
2315.5,246.225,-422.5,-5.68,4211
2316.05,246.375,-423.9,-5.92,4212
2316.6,246.528,-426.8,-6.4,4213
2317.15,246.688,-433.8,-7.56,4214
2317.7,246.862,-430,-6.94,4215
2318.25,247.031,-429.1,-6.8,4216
2318.8,247.198,-431.6,-7.22,4217
2319.35,247.366,-424.2,-6.01,4218
2319.9,247.522,-421.2,-5.52,4219
2320.45,247.677,-424,-5.99,4220
2321,247.832,-427.5,-6.58,4221
2321.55,247.992,-422,-5.67,4222
2322.1,248.142,-421.9,-5.66,4223
2322.65,248.293,-421.5,-5.6,4224
2323.2,248.443,-425.6,-6.29,4225
2323.75,248.602,-422.9,-5.85,4226
2324.3,248.755,-423.6,-5.97,4227
2324.85,248.911,-427.7,-6.65,4228
2325.4,249.075,-425.3,-6.26,4229
2325.95,249.235,-425.6,-6.32,4230
2326.5,249.396,-429.4,-6.95,4231
2327.05,249.566,-429.1,-6.91,4232
2327.6,249.736,-432.2,-7.43,4233
2328.15,249.915,-431.5,-7.32,4234
2328.7,250.092,-435.2,-7.93,4235
2329.25,250.278,-431.3,-7.29,4236
2329.8,250.456,-434.1,-7.76,4237
2330.35,250.637,-434.3,-7.8,4238
2330.9,250.822,-432.4,-7.49,4239
2331.45,251.002,-432.2,-7.46,4240
2332,251.182,-432.1,-7.45,4241
2332.55,251.358,-430.7,-7.23,4242
2333.1,251.534,-432.6,-7.54,4243
2333.65,251.719,-437.2,-8.29,4244
2334.2,251.915,-438.8,-8.57,4245
2334.75,252.115,-437.1,-8.28,4246
2335.3,252.31,-436.1,-8.12,4247
2335.85,252.503,-437.4,-8.33,4248
2336.4,252.699,-433,-7.6,4249
2336.95,252.883,-437.4,-8.33,4250
2337.5,253.079,-434.8,-7.89,4251
2338.05,253.269,-438.4,-8.48,4252
2338.6,253.468,-437.8,-8.38,4253
2339.15,253.665,-433.6,-7.68,4254
2339.7,253.852,-432.8,-7.55,4255
2340.25,254.035,-432.4,-7.48,4256
2340.8,254.217,-430.5,-7.17,4257
2341.35,254.395,-435.5,-7.99,4258
2341.9,254.586,-436.8,-8.2,4259
2342.45,254.781,-434.2,-7.77,4260
2343,254.969,-432.4,-7.47,4261
2343.55,255.152,-434.7,-7.85,4262
2344.1,255.341,-434.9,-7.88,4263
2344.65,255.531,-433.9,-7.72,4264
2345.2,255.719,-441.2,-8.92,4265
2345.75,255.917,-435.6,-7.99,4266
2346.3,256.11,-433.9,-7.71,4267
2346.85,256.298,-433.8,-7.69,4268
2347.4,256.48,-430.3,-7.12,4269
2347.95,256.658,-429.5,-6.99,4270
2348.5,256.833,-433.7,-7.68,4271
2349.05,257.02,-430.5,-7.16,4272
2349.6,257.199,-429.1,-6.93,4273
2350.15,257.375,-436.4,-8.13,4274
2350.7,257.568,-431.3,-7.29,4275
2351.25,257.75,-429.4,-6.98,4276
2351.8,257.926,-430.5,-7.17,4277
2352.35,258.105,-428.4,-6.82,4278
2352.9,258.278,-427,-6.59,4279
2353.45,258.448,-423.5,-6.02,4280
2354,258.61,-427.6,-6.7,4281
2354.55,258.781,-432,-7.43,4282
2355.1,258.965,-430.6,-7.2,4283
2355.65,259.145,-432.5,-7.51,4284
2356.2,259.331,-437.8,-8.38,4285
2356.75,259.532,-431.6,-7.36,4286
2357.3,259.716,-431,-7.27,4287
2357.85,259.898,-431.5,-7.35,4288
2358.4,260.085,-435.4,-7.99,4289
2358.95,260.281,-438,-8.42,4290
2359.5,260.483,-435.2,-7.96,4291
2360.05,260.679,-435.8,-8.06,4292
2360.6,260.874,-427.4,-6.68,4293
2361.15,261.049,-431.1,-7.29,4294
2361.7,261.231,-429.4,-7.01,4295
2362.25,261.411,-432.1,-7.46,4296
2362.8,261.597,-435.1,-7.95,4297
2363.35,261.792,-437.5,-8.35,4298
2363.9,261.995,-434.6,-7.87,4299
2364.45,262.19,-431.8,-7.41,4300
2365,262.376,-432.5,-7.53,4301
2365.55,262.565,-434.5,-7.86,4302
2366.1,262.758,-429.3,-7,4303
2366.65,262.939,-434.8,-7.91,4304
2367.2,263.134,-429.5,-7.04,4305
2367.75,263.315,-424.4,-6.2,4306
2368.3,263.483,-424.1,-6.16,4307
2368.85,263.649,-424.1,-6.17,4308
2369.4,263.817,-428.5,-6.9,4309
2369.95,263.994,-426.3,-6.54,4310
2370.5,264.168,-428,-6.83,4311
2371.05,264.345,-430.9,-7.31,4312
2371.6,264.531,-428.9,-6.98,4313
2372.15,264.712,-427.3,-6.72,4314
2372.7,264.889,-431.3,-7.39,4315
2373.25,265.077,-431.7,-7.45,4316
2373.8,265.266,-432.1,-7.52,4317
2374.35,265.457,-430.4,-7.24,4318
2374.9,265.643,-432.2,-7.54,4319
2375.45,265.834,-433.5,-7.76,4320
2376,266.036,-433.8,-7.81,4321
2376.55,266.24,-436.7,-8.29,4322
2377.1,266.459,-435.8,-8.15,4323
2377.65,266.675,-434.3,-7.9,4324
2378.2,266.88,-430.9,-7.34,4325
2378.75,267.077,-436.2,-8.21,4326
2379.3,267.285,-439,-8.68,4327
2379.85,267.5,-439.6,-8.77,4328
2380.4,267.718,-440.5,-8.92,4329
2380.95,267.939,-436.6,-8.28,4330
2381.5,268.147,-437.9,-8.49,4331
2382.05,268.359,-437.7,-8.45,4332
2382.6,268.571,-438.2,-8.54,4333
2383.15,268.785,-438.3,-8.55,4334
2383.7,269,-440.3,-8.88,4335
2384.25,269.222,-438.9,-8.65,4336
2384.8,269.439,-440.7,-8.95,4337
2385.35,269.663,-441.8,-9.13,4338
2385.9,269.891,-438.1,-8.51,4339
2386.45,270.107,-442.6,-9.25,4340
2387,270.337,-438.3,-8.54,4341
2387.55,270.553,-437.5,-8.41,4342
2388.1,270.768,-441,-8.98,4343
2388.65,270.994,-444.5,-9.55,4344
2389.2,271.232,-442.2,-9.16,4345
2389.75,271.463,-441.8,-9.09,4346
2390.3,271.693,-443.5,-9.36,4347
2390.85,271.928,-443.4,-9.34,4348
2391.4,272.164,-442.8,-9.23,4349
2391.95,272.397,-443.8,-9.38,4350
2392.5,272.635,-441.9,-9.06,4351
2393.05,272.866,-443.5,-9.32,4352
2393.6,273.102,-443.5,-9.31,4353
2394.15,273.338,-441.6,-8.98,4354
2394.7,273.569,-442.8,-9.17,4355
2395.25,273.803,-442.1,-9.05,4356
2395.8,274.035,-442.5,-9.11,4357
2396.35,274.268,-442.2,-9.05,4358
2396.9,274.501,-439.3,-8.56,4359
2397.45,274.724,-441.8,-8.97,4360
2398,274.955,-439.5,-8.58,4361
2398.55,275.179,-441.8,-8.95,4362
2399.1,275.41,-442.3,-9.02,4363
2399.65,275.644,-437.9,-8.28,4364
2400.2,275.861,-435.6,-7.89,4365
2400.75,276.073,-437.3,-8.16,4366
2401.3,276.289,-439.9,-8.58,4367
2401.85,276.514,-442.5,-8.99,4368
2402.4,276.748,-438.9,-8.38,4369
2402.95,276.971,-442.4,-8.95,4370
2403.5,277.205,-445.1,-9.38,4371
2404.05,277.448,-438.2,-8.22,4372
2404.6,277.668,-435.5,-7.76,4373
2405.15,277.879,-435.5,-7.75,4374
2405.7,278.089,-438.7,-8.26,4375
2406.25,278.31,-439.7,-8.41,4376
2406.8,278.535,-445.2,-9.3,4377
2407.35,278.778,-436.8,-7.89,4378
2407.9,278.993,-437.9,-8.05,4379
2408.45,279.212,-441.1,-8.57,4380
2409,279.44,-438.5,-8.12,4381
2409.55,279.66,-438.1,-8.04,4382
2410.1,279.878,-433.9,-7.33,4383
2410.65,280.083,-430.8,-6.81,4384
2411.2,280.278,-429.2,-6.53,4385
2411.75,280.467,-423.4,-5.57,4386
2412.3,280.639,-429.8,-6.62,4387
2412.85,280.831,-432.9,-7.12,4388
2413.4,281.032,-430.7,-6.75,4389
2413.95,281.222,-433.4,-7.19,4390
2414.5,281.419,-437.3,-7.82,4391
2415.05,281.633,-434.7,-7.38,4392
2415.6,281.841,-431.8,-6.89,4393
2416.15,282.033,-430.9,-6.73,4394
2416.7,282.228,-431,-6.74,4395
2417.25,282.423,-428.9,-6.39,4396
2417.8,282.612,-429.9,-6.55,4397
2418.35,282.804,-427.7,-6.18,4398
2418.9,282.99,-428.5,-6.31,4399
2419.45,283.178,-426.3,-5.95,4400
2420,283.36,-426.5,-5.98,4401
2420.55,283.543,-425.7,-5.85,4402
2421.1,283.723,-424.6,-5.67,4403
2421.65,283.902,-427.9,-6.21,4404
2422.2,284.088,-426.4,-5.97,4405
2422.75,284.271,-424.7,-5.69,4406
2423.3,284.45,-424.5,-5.66,4407
2423.85,284.628,-425.5,-5.83,4408
2424.4,284.809,-424.8,-5.71,4409
2424.95,284.989,-424.8,-5.71,4410
2425.5,285.168,-430.2,-6.61,4411
2426.05,285.361,-422.1,-5.28,4412
2426.6,285.535,-423.7,-5.55,4413
2427.15,285.713,-422.5,-5.35,4414
2427.7,285.89,-425,-5.77,4415
2428.25,286.07,-421.3,-5.17,4416
2428.8,286.241,-421.7,-5.24,4417
2429.35,286.413,-420.2,-5,4418
2429.9,286.58,-421.8,-5.27,4419
2430.45,286.75,-423.8,-5.61,4420
2431,286.927,-419.5,-4.9,4421
2431.55,287.094,-423.4,-5.56,4422
2432.1,287.268,-422.1,-5.35,4423
2432.65,287.444,-419.9,-4.99,4424
2433.2,287.613,-419.3,-4.9,4425
2433.75,287.781,-420,-5.02,4426
2434.3,287.948,-417.2,-4.57,4427
2434.85,288.111,-417.9,-4.69,4428
2435.4,288.267,-419.7,-5,4429
2435.95,288.426,-418.4,-4.79,4430
2436.5,288.596,-420.5,-5.15,4431
2437.05,288.767,-418.2,-4.77,4432
2437.6,288.928,-419.9,-5.06,4433
2438.15,289.102,-420.8,-5.21,4434
2438.7,289.264,-419.5,-5.01,4435
2439.25,289.432,-419.2,-4.97,4436
2439.8,289.599,-419.3,-4.99,4437
2440.35,289.762,-415.1,-4.31,4438
2440.9,289.918,-413.6,-4.07,4439
2441.45,290.067,-412.1,-3.83,4440
2442,290.22,-412.1,-3.84,4441
2442.55,290.374,-415,-4.33,4442
2443.1,290.534,-416.4,-4.57,4443
2443.65,290.698,-415.3,-4.4,4444
2444.2,290.857,-418.7,-4.97,4445
2444.75,291.018,-419.6,-5.12,4446
2445.3,291.181,-420.7,-5.31,4447
2445.85,291.358,-423.2,-5.73,4448
2446.4,291.541,-427.4,-6.43,4449
2446.95,291.727,-421.2,-5.41,4450
2447.5,291.906,-423.1,-5.72,4451
2448.05,292.09,-425.8,-6.17,4452
2448.6,292.283,-429,-6.7,4453
2449.15,292.485,-426.5,-6.29,4454
2449.7,292.68,-427.2,-6.41,4455
2450.25,292.879,-425.6,-6.14,4456
2450.8,293.073,-430.7,-6.98,4457
2451.35,293.281,-432.4,-7.27,4458
2451.9,293.486,-435.4,-7.76,4459
2452.45,293.711,-434.3,-7.58,4460
2453,293.933,-431.7,-7.14,4461
2453.55,294.146,-427.2,-6.4,4462
2454.1,294.346,-434.1,-7.53,4463
2454.65,294.568,-434.7,-7.63,4464
2455.2,294.792,-437.4,-8.07,4465
2455.75,295.018,-434.7,-7.62,4466
2456.3,295.243,-432.3,-7.22,4467
2456.85,295.454,-432.2,-7.2,4468
2457.4,295.67,-429.1,-6.68,4469
2457.95,295.876,-426,-6.17,4470
2458.5,296.072,-418.5,-4.93,4471
2459.05,296.249,-422.9,-5.66,4472
2459.6,296.436,-424.2,-5.87,4473
2460.15,296.63,-427.2,-6.37,4474
2460.7,296.831,-430.8,-6.95,4475
2461.25,297.04,-431.4,-7.05,4476
2461.8,297.258,-433.4,-7.38,4477
2462.35,297.48,-437.4,-8.03,4478
2462.9,297.695,-433.3,-7.35,4479
2463.45,297.896,-436.1,-7.81,4480
2464,298.128,-434.9,-7.6,4481
2464.55,298.356,-432.2,-7.15,4482
2465.1,298.576,-432.8,-7.24,4483
2465.65,298.79,-429.4,-6.68,4484
2466.2,299.001,-428.6,-6.54,4485
2466.75,299.209,-427.6,-6.37,4486
2467.3,299.415,-429.2,-6.63,4487
2467.85,299.626,-428.9,-6.57,4488
2468.4,299.836,-425.4,-5.99,4489
2468.95,300.035,-424.7,-5.87,4490
2469.5,300.232,-422.9,-5.57,4491
2470.05,300.424,-418.9,-4.91,4492
2470.6,300.609,-425.1,-5.93,4493
2471.15,300.808,-427.4,-6.31,4494
2471.7,301.015,-429,-6.57,4495
2472.25,301.227,-432.5,-7.14,4496
2472.8,301.451,-435.9,-7.69,4497
2473.35,301.668,-432.1,-7.06,4498
2473.9,301.891,-432.2,-7.07,4499
2474.45,302.116,-431.9,-7.01,4500
2475,302.339,-425.5,-5.94,4501
2475.55,302.542,-427.3,-6.23,4502
2476.1,302.751,-428.3,-6.39,4503
2476.65,302.963,-426.7,-6.12,4504
2477.2,303.17,-424.1,-5.68,4505
2477.75,303.369,-421.5,-5.25,4506
2478.3,303.562,-425,-5.82,4507
2478.85,303.763,-418.4,-4.73,4508
2479.4,303.954,-422.7,-5.42,4509
2479.95,304.148,-420.8,-5.1,4510
2480.5,304.329,-422.6,-5.39,4511
2481.05,304.524,-421.5,-5.2,4512
2481.6,304.716,-419.4,-4.85,4513
2482.15,304.906,-422,-5.27,4514
2482.7,305.1,-418.4,-4.67,4515
2483.25,305.284,-414.1,-3.95,4516
2483.8,305.456,-415.9,-4.25,4517
2484.35,305.633,-417.9,-4.57,4518
2484.9,305.817,-423.1,-5.42,4519
2485.45,306.014,-422.3,-5.28,4520
2486,306.211,-423.5,-5.47,4521
2486.55,306.41,-421.1,-5.06,4522
2487.1,306.604,-425.6,-5.8,4523
2487.65,306.807,-430.9,-6.66,4524
2488.2,307.031,-436.6,-7.59,4525
2488.75,307.269,-433.1,-6.99,4526
2489.3,307.491,-432,-6.79,4527
2489.85,307.72,-430.7,-6.56,4528
2490.4,307.945,-429.7,-6.38,4529
2490.95,308.167,-427.6,-6.02,4530
2491.5,308.382,-424.7,-5.53,4531
2492.05,308.588,-428.3,-6.12,4532
2492.6,308.805,-426.2,-5.76,4533
2493.15,309.017,-423.7,-5.33,4534
2493.7,309.223,-426,-5.7,4535
2494.25,309.434,-426.9,-5.84,4536
2494.8,309.649,-430.1,-6.36,4537
2495.35,309.873,-424.6,-5.44,4538
2495.9,310.082,-426.7,-5.77,4539
2496.45,310.297,-424.5,-5.4,4540
2497,310.506,-428,-5.97,4541
2497.55,310.725,-423.5,-5.21,4542
2498.1,310.931,-423.5,-5.19,4543
2498.65,311.133,-424.9,-5.41,4544
2499.2,311.337,-425.5,-5.51,4545
2499.75,311.542,-424.5,-5.33,4546
2500.3,311.755,-422.1,-4.92,4547
2500.85,311.954,-423.3,-5.11,4548
2501.4,312.16,-419.3,-4.43,4549
2501.95,312.356,-421.3,-4.76,4550
2502.5,312.558,-423.5,-5.11,4551
2503.05,312.765,-417.2,-4.05,4552
2503.6,312.956,-417.1,-4.03,4553
2504.15,313.146,-419.4,-4.4,4554
2504.7,313.342,-413.6,-3.43,4555
2505.25,313.523,-416.5,-3.9,4556
2505.8,313.71,-410.2,-2.85,4557
2506.35,313.883,-416,-3.8,4558
2506.9,314.07,-414,-3.46,4559
2507.45,314.252,-412.6,-3.22,4560
2508,314.43,-415.4,-3.67,4561
2508.55,314.616,-412.8,-3.23,4562
2509.1,314.796,-410.5,-2.84,4563
2509.65,314.968,-408.5,-2.5,4564
2510.2,315.136,-415.3,-3.62,4565
2510.75,315.322,-416.7,-3.84,4566
2511.3,315.512,-407.3,-2.28,4567
2511.85,315.679,-409.3,-2.6,4568
2512.4,315.849,-406,-2.05,4569
2512.95,316.011,-403.4,-1.61,4570
2513.5,316.166,-401.4,-1.27,4571
2514.05,316.317,-410,-2.69,4572
2514.6,316.488,-411.9,-2.99,4573
2515.15,316.666,-411.7,-2.95,4574
2515.7,316.844,-412.8,-3.12,4575
2516.25,317.025,-413.4,-3.2,4576
2516.8,317.209,-415.7,-3.57,4577
2517.35,317.398,-415,-3.44,4578
2517.9,317.586,-416.4,-3.65,4579
2518.45,317.777,-414.3,-3.29,4580
2519,317.964,-416.3,-3.6,4581
2519.55,318.156,-420.1,-4.22,4582
2520.1,318.359,-421.4,-4.41,4583
2520.65,318.568,-426.9,-5.3,4584
2521.2,318.794,-422.6,-4.57,4585
2521.75,319.006,-421.8,-4.41,4586
2522.3,319.216,-421.7,-4.37,4587
2522.85,319.426,-422.3,-4.45,4588
2523.4,319.637,-422.2,-4.41,4589
2523.95,319.848,-420,-4.03,4590
2524.5,320.053,-418.8,-3.81,4591
2525.05,320.254,-421.5,-4.24,4592
2525.6,320.462,-416.5,-3.39,4593
2526.15,320.657,-415.1,-3.14,4594
2526.7,320.846,-414.2,-2.98,4595
2527.25,321.033,-414.9,-3.08,4596
2527.8,321.222,-409,-2.08,4597
2528.35,321.396,-414,-2.9,4598
2528.9,321.581,-410.9,-2.37,4599
2529.45,321.76,-411.4,-2.44,4600
2530,321.939,-410.3,-2.24,4601
2530.55,322.115,-408.5,-1.93,4602
2531.1,322.287,-408.5,-1.92,4603
2531.65,322.458,-405.1,-1.35,4604
2532.2,322.621,-406.2,-1.52,4605
2532.75,322.787,-408.4,-1.88,4606
2533.3,322.958,-404.4,-1.21,4607
2533.85,323.119,-404,-1.13,4608
2534.4,323.279,-402.8,-0.93,4609
2534.95,323.437,-401.8,-0.76,4610
2535.5,323.592,-405.7,-1.4,4611
2536.05,323.755,-399.9,-0.43,4612
2536.6,323.907,-402.4,-0.84,4613
2537.15,324.063,-399.4,-0.34,4614
2537.7,324.212,-396.6,0.13,4615
2538.25,324.356,-396.9,0.08,4616
2538.8,324.5,-398.8,-0.23,4617
2539.35,324.648,-400.8,-0.56,4618
2539.9,324.8,-398.4,-0.16,4619
2540.45,324.948,-398.9,-0.24,4620
2541,325.096,-397.9,-0.08,4621
2541.55,325.242,-396.3,0.19,4622
2542.1,325.385,-400.8,-0.55,4623
2542.65,325.529,-394.8,0.44,4624
2543.2,325.668,-392.3,0.85,4625
2543.75,325.802,-393.1,0.72,4626
2544.3,325.938,-389.5,1.31,4627
2544.85,326.067,-394,0.56,4628
2545.4,326.203,-393.9,0.57,4629
2545.95,326.341,-395.5,0.31,4630
2546.5,326.48,-393.9,0.57,4631
2547.05,326.617,-393.6,0.61,4632
2547.6,326.75,-394.7,0.43,4633
2548.15,326.887,-396.3,0.16,4634
2548.7,327.025,-393,0.7,4635
2549.25,327.161,-394.8,0.39,4636
2549.8,327.298,-394.4,0.46,4637
2550.35,327.432,-394.6,0.41,4638
2550.9,327.56,-390.8,1.04,4639
2551.45,327.685,-389.8,1.19,4640
2552,327.818,-393.5,0.57,4641
2552.55,327.949,-392.1,0.79,4642
2553.1,328.083,-392.6,0.7,4643
2553.65,328.217,-392,0.8,4644
2554.2,328.351,-392.8,0.66,4645
2554.75,328.477,-388.5,1.36,4646
2555.3,328.604,-388.4,1.36,4647
2555.85,328.733,-389.9,1.11,4648
2556.4,328.864,-390.5,1,4649
2556.95,329.001,-394,0.41,4650
2557.5,329.141,-395.2,0.2,4651
2558.05,329.275,-391.6,0.79,4652
2558.6,329.415,-395.7,0.1,4653
2559.15,329.551,-391.5,0.78,4654
2559.7,329.684,-393.2,0.49,4655
2560.25,329.82,-393.2,0.47,4656
2560.8,329.952,-391.3,0.77,4657
2561.35,330.083,-390.3,0.92,4658
2561.9,330.213,-390,0.96,4659
2562.45,330.343,-389.8,0.97,4660
2563,330.482,-394.7,0.15,4661
2563.55,330.616,-391.2,0.71,4662
2564.1,330.753,-393.4,0.32,4663
2564.65,330.89,-393.1,0.35,4664
2565.2,331.036,-397.2,-0.34,4665
2565.75,331.179,-395.6,-0.1,4666
2566.3,331.322,-395.6,-0.12,4667
2566.85,331.461,-394.4,0.05,4668
2567.4,331.599,-393,0.26,4669
2567.95,331.725,-388.2,1.03,4670
2568.5,331.849,-388.1,1.02,4671
2569.05,331.979,-388.8,0.88,4672
2569.6,332.097,-383.1,1.79,4673
2570.15,332.217,-382.7,1.83,4674
2570.7,332.33,-381.4,2.01,4675
2571.25,332.442,-379.4,2.32,4676
2571.8,332.549,-376.5,2.77,4677
2572.35,332.653,-373.3,3.27,4678
2572.9,332.762,-377.6,2.53,4679
2573.45,332.872,-377.4,2.54,4680
2574,332.976,-373.3,3.19,4681
2574.55,333.079,-373.1,3.19,4682
2575.1,333.179,-371.2,3.48,4683
2575.65,333.277,-369.4,3.75,4684
2576.2,333.379,-371.7,3.34,4685
2576.75,333.485,-372.2,3.23,4686
2577.3,333.59,-371.3,3.35,4687
2577.85,333.697,-373.8,2.9,4688
2578.4,333.803,-373,3.01,4689
2578.95,333.902,-368.6,3.7,4690
2579.5,334,-368.9,3.62,4691
2580.05,334.103,-373.1,2.9,4692
2580.6,334.207,-371.8,3.09,4693
2581.15,334.316,-374,2.69,4694
2581.7,334.422,-372.8,2.87,4695
2582.25,334.528,-373,2.81,4696
2582.8,334.642,-377.4,2.04,4697
2583.35,334.763,-379.9,1.6,4698
2583.9,334.88,-379.7,1.61,4699
2584.45,335,-381.1,1.36,4700
2585,335.12,-382.2,1.15,4701
2585.55,335.25,-385.8,0.53,4702
2586.1,335.376,-384,0.8,4703
2586.65,335.514,-389.1,-0.07,4704
2587.2,335.655,-392.3,-0.62,4705
2587.75,335.798,-392.4,-0.66,4706
2588.3,335.947,-394,-0.95,4707
2588.85,336.098,-397.1,-1.48,4708
2589.4,336.26,-399.6,-1.92,4709
2589.95,336.426,-400.8,-2.14,4710
2590.5,336.591,-400.8,-2.17,4711
2591.05,336.762,-403.6,-2.65,4712
2591.6,336.937,-405.2,-2.94,4713
2592.15,337.117,-404.1,-2.78,4714
2592.7,337.296,-406.3,-3.17,4715
2593.25,337.478,-406.1,-3.16,4716
2593.8,337.667,-408,-3.5,4717
2594.35,337.864,-410.8,-3.98,4718
2594.9,338.064,-411.5,-4.12,4719
2595.45,338.274,-414.3,-4.6,4720
2596,338.492,-417,-5.07,4721
2596.55,338.724,-420.6,-5.68,4722
2597.1,338.953,-419.4,-5.5,4723
2597.65,339.19,-422,-5.95,4724
2598.2,339.435,-423.5,-6.21,4725
2598.75,339.69,-425.5,-6.55,4726
2599.3,339.949,-427.9,-6.96,4727
2599.85,340.22,-428.7,-7.1,4728
2600.4,340.5,-432.4,-7.71,4729
2600.95,340.798,-436.5,-8.39,4730
2601.5,341.121,-441.3,-9.18,4731
2602.05,341.454,-443.6,-9.56,4732
2602.6,341.774,-440.2,-8.99,4733
2603.15,342.103,-441.6,-9.22,4734
2603.7,342.448,-444.3,-9.66,4735
2604.25,342.761,-440.2,-8.98,4736
2604.8,343.098,-441.2,-9.14,4737
2605.35,343.404,-436.3,-8.33,4738
2605.9,343.728,-440.6,-9.03,4739
2606.45,344.041,-438.2,-8.62,4740
2607,344.368,-439.6,-8.85,4741
2607.55,344.688,-439.6,-8.84,4742
2608.1,345.001,-437.8,-8.53,4743
2608.65,345.317,-438.8,-8.69,4744
2609.2,345.623,-436.4,-8.29,4745
2609.75,345.934,-437.3,-8.43,4746
2610.3,346.257,-440.1,-8.88,4747
2610.85,346.557,-434.8,-8.01,4748
2611.4,346.868,-437.6,-8.46,4749
2611.95,347.181,-437.8,-8.49,4750
2612.5,347.466,-431.4,-7.44,4751
2613.05,347.769,-435.7,-8.14,4752
2613.6,348.09,-439.4,-8.74,4753
2614.15,348.408,-438.6,-8.61,4754
2614.7,348.707,-434.9,-8,4755
2615.25,348.969,-425.9,-6.52,4756
2615.8,349.26,-433.2,-7.73,4757
2616.35,349.54,-430,-7.2,4758
2616.9,349.821,-430.5,-7.28,4759
2617.45,350.106,-431,-7.36,4760
2618,350.41,-435.5,-8.1,4761
2618.55,350.702,-432.5,-7.61,4762
2619.1,351,-433.9,-7.83,4763
2619.65,351.3,-434.3,-7.89,4764
2620.2,351.6,-434.2,-7.87,4765
2620.75,351.895,-433.3,-7.72,4766
2621.3,352.195,-434.2,-7.86,4767
2621.85,352.494,-434.9,-7.97,4768
2622.4,352.794,-432.8,-7.63,4769
2622.95,353.09,-432.6,-7.59,4770
2623.5,353.379,-431.4,-7.4,4771
2624.05,353.67,-434.7,-7.94,4772
2624.6,353.958,-432.3,-7.55,4773
2625.15,354.272,-436,-8.15,4774
2625.7,354.6,-438.6,-8.58,4775
2626.25,354.935,-439.9,-8.79,4776
2626.8,355.274,-441.2,-9,4777
2627.35,355.609,-440.4,-8.87,4778
2627.9,355.944,-440.4,-8.87,4779
2628.45,356.268,-438.3,-8.52,4780
2629,356.594,-438.6,-8.57,4781
2629.55,356.927,-439.9,-8.78,4782
2630.1,357.259,-439.5,-8.7,4783
2630.65,357.598,-441,-8.94,4784
2631.2,357.935,-441.3,-8.99,4785
2631.75,358.282,-440.2,-8.8,4786
2632.3,358.614,-437.9,-8.41,4787
2632.85,358.947,-438.6,-8.52,4788
2633.4,359.281,-439.7,-8.7,4789
2633.95,359.599,-434.5,-7.84,4790
2634.5,359.931,-439.2,-8.6,4791
2635.05,360.248,-434.6,-7.84,4792
2635.6,360.585,-440.1,-8.74,4793
2636.15,360.892,-433.8,-7.69,4794
2636.7,361.223,-438.1,-8.39,4795
2637.25,361.534,-435.1,-7.89,4796
2637.8,361.835,-432.1,-7.4,4797
2638.35,362.15,-433.4,-7.61,4798
2638.9,362.473,-437.4,-8.26,4799
2639.45,362.766,-430.2,-7.07,4800
2640,363.06,-424.2,-6.07,4801
2640.55,363.354,-430.5,-7.11,4802
2641.1,363.66,-433.2,-7.55,4803
2641.65,363.958,-431.1,-7.2,4804
2642.2,364.264,-432.7,-7.46,4805
2642.75,364.592,-436.9,-8.14,4806
2643.3,364.919,-437.3,-8.19,4807
2643.85,365.224,-432.3,-7.36,4808
2644.4,365.526,-431.6,-7.23,4809
2644.95,365.836,-433.7,-7.58,4810
2645.5,366.147,-433.6,-7.55,4811
2646.05,366.456,-433.1,-7.46,4812
2646.6,366.774,-435.2,-7.8,4813
2647.15,367.084,-433.4,-7.5,4814
2647.7,367.388,-431.5,-7.18,4815
2648.25,367.688,-428.8,-6.73,4816
2648.8,367.993,-432.8,-7.38,4817
2649.35,368.303,-434.4,-7.64,4818
2649.9,368.64,-438.4,-8.29,4819
2650.45,368.963,-435.6,-7.82,4820
2651,369.275,-433.1,-7.4,4821
2651.55,369.586,-432.9,-7.36,4822
2652.1,369.881,-429.3,-6.77,4823
2652.65,370.184,-431,-7.04,4824
2653.2,370.488,-431.1,-7.06,4825
2653.75,370.768,-425.7,-6.17,4826
2654.3,371.057,-427.7,-6.49,4827
2654.85,371.345,-427.5,-6.46,4828
2655.4,371.633,-427.1,-6.39,4829
2655.95,371.921,-427.4,-6.44,4830
2656.5,372.202,-425.4,-6.11,4831
2657.05,372.472,-422.9,-5.7,4832
2657.6,372.725,-418.4,-4.96,4833
2658.15,372.989,-421.2,-5.42,4834
2658.7,373.266,-424.1,-5.9,4835
2659.25,373.551,-425.7,-6.16,4836
2659.8,373.845,-427.7,-6.49,4837
2660.35,374.151,-430,-6.86,4838
2660.9,374.489,-436.6,-7.94,4839
2661.45,374.825,-435.7,-7.78,4840
2662,375.158,-435,-7.66,4841
2662.55,375.486,-433.8,-7.45,4842
2663.1,375.809,-432.7,-7.26,4843
2663.65,376.132,-432.5,-7.22,4844
2664.2,376.45,-431.3,-7.01,4845
2664.75,376.753,-428,-6.46,4846
2665.3,377.062,-429.3,-6.67,4847
2665.85,377.364,-428.1,-6.46,4848
2666.4,377.67,-428.4,-6.5,4849
2666.95,377.965,-426.6,-6.2,4850
2667.5,378.283,-430.6,-6.85,4851
2668.05,378.588,-427.6,-6.35,4852
2668.6,378.883,-425.1,-5.93,4853
2669.15,379.174,-424.4,-5.81,4854
2669.7,379.465,-424.1,-5.76,4855
2670.25,379.748,-422.2,-5.44,4856
2670.8,380.019,-419,-4.91,4857
2671.35,380.291,-419.4,-4.97,4858
2671.9,380.571,-421.3,-5.28,4859
2672.45,380.846,-419.7,-5.02,4860
2673,381.118,-419.1,-4.92,4861
2673.55,381.38,-416.1,-4.42,4862
2674.1,381.644,-417.2,-4.6,4863
2674.65,381.912,-412.1,-3.76,4864
2675.2,382.178,-416.7,-4.52,4865
2675.75,382.468,-420.6,-5.15,4866
2676.3,382.754,-421.2,-5.24,4867
2676.85,383.036,-420.3,-5.09,4868
2677.4,383.342,-425.7,-5.97,4869
2677.95,383.645,-425.2,-5.87,4870
2678.5,383.956,-426.4,-6.06,4871
2679.05,384.256,-423.9,-5.63,4872
2679.6,384.549,-422.4,-5.37,4873
2680.15,384.839,-421.3,-5.18,4874
2680.7,385.107,-416.4,-4.36,4875
2681.25,385.389,-419.6,-4.88,4876
2681.8,385.673,-420,-4.93,4877
2682.35,385.943,-416.3,-4.31,4878
2682.9,386.207,-416.4,-4.32,4879
2683.45,386.469,-410.2,-3.29,4880
2684,386.716,-406.5,-2.67,4881
2684.55,386.977,-413.9,-3.88,4882
2685.1,387.253,-418.1,-4.56,4883
2685.65,387.537,-419.3,-4.74,4884
2686.2,387.839,-423.1,-5.35,4885
2686.75,388.144,-423.4,-5.37,4886
2687.3,388.467,-427.3,-5.99,4887
2687.85,388.788,-426.7,-5.86,4888
2688.4,389.137,-432,-6.7,4889
2688.95,389.481,-430.9,-6.48,4890
2689.5,389.805,-427,-5.8,4891
2690.05,390.135,-428.3,-5.98,4892
2690.6,390.448,-424.7,-5.35,4893
2691.15,390.743,-420.8,-4.68,4894
2691.7,391.04,-421.3,-4.73,4895
2692.25,391.345,-422.9,-4.96,4896
2692.8,391.644,-421.5,-4.7,4897
2693.35,391.942,-421.4,-4.65,4898
2693.9,392.231,-419.3,-4.26,4899
2694.45,392.515,-418.1,-4.03,4900
2695,392.79,-416.1,-3.67,4901
2695.55,393.057,-414.2,-3.33,4902
2696.1,393.325,-414.3,-3.32,4903
2696.65,393.58,-411.2,-2.78,4904
2697.2,393.832,-410.3,-2.61,4905
2697.75,394.079,-409,-2.37,4906
2698.3,394.328,-409.5,-2.43,4907
2698.85,394.568,-407,-2,4908
2699.4,394.815,-409,-2.3,4909
2699.95,395.057,-407.9,-2.1,4910
2700.5,395.281,-402.1,-1.12,4911
2701.05,395.501,-401.3,-0.98,4912
2701.6,395.737,-405.9,-1.71,4913
2702.15,395.965,-403.6,-1.31,4914
2702.7,396.192,-403.2,-1.23,4915
2703.25,396.413,-401.6,-0.95,4916
2703.8,396.635,-401.6,-0.93,4917
2704.35,396.846,-398.5,-0.4,4918
2704.9,397.058,-398.9,-0.45,4919
2705.45,397.267,-397.8,-0.25,4920
2706,397.477,-398.1,-0.28,4921
2706.55,397.677,-394.7,0.29,4922
2707.1,397.885,-397.8,-0.2,4923
2707.65,398.095,-398,-0.22,4924
2708.2,398.319,-402.5,-0.94,4925
2708.75,398.537,-400.4,-0.57,4926
2709.3,398.735,-394.2,0.47,4927
2709.85,398.935,-395,0.36,4928
2710.4,399.131,-393.4,0.64,4929
2710.95,399.34,-397.8,-0.07,4930
2711.5,399.543,-395.6,0.31,4931
2712.05,399.746,-395.2,0.39,4932
2712.6,399.946,-394.6,0.51,4933
2713.15,400.143,-393.5,0.7,4934
2713.7,400.332,-390.8,1.16,4935
2714.25,400.514,-388.2,1.6,4936
2714.8,400.704,-391,1.15,4937
2715.35,400.901,-393,0.83,4938
2715.9,401.094,-392.2,0.98,4939
2716.45,401.276,-387.4,1.78,4940
2717,401.46,-388.4,1.62,4941
2717.55,401.644,-388.4,1.63,4942
2718.1,401.83,-388.8,1.57,4943
2718.65,402.015,-388.8,1.58,4944
2719.2,402.192,-385.2,2.18,4945
2719.75,402.38,-389.4,1.49,4946
2720.3,402.563,-387.6,1.79,4947
2720.85,402.741,-385.5,2.14,4948
2721.4,402.917,-385.1,2.2,4949
2721.95,403.088,-382.6,2.62,4950
2722.5,403.267,-385.6,2.12,4951
2723.05,403.444,-384.7,2.27,4952
2723.6,403.624,-386.3,2.01,4953
2724.15,403.803,-385.1,2.2,4954
2724.7,403.984,-386.9,1.9,4955
2725.25,404.171,-388.5,1.64,4956
2725.8,404.348,-383.8,2.41,4957
2726.35,404.529,-385.7,2.1,4958
2726.9,404.714,-387,1.88,4959
2727.45,404.9,-387.6,1.78,4960
2728,405.08,-384.9,2.22,4961
2728.55,405.264,-388.9,1.56,4962
2729.1,405.441,-383.7,2.41,4963
2729.65,405.617,-383.2,2.49,4964
2730.2,405.79,-382.2,2.65,4965
2730.75,405.962,-381.8,2.71,4966
2731.3,406.142,-384.7,2.22,4967
2731.85,406.33,-387.3,1.79,4968
2732.4,406.508,-383.3,2.44,4969
2732.95,406.69,-384.3,2.27,4970
2733.5,406.86,-378.9,3.15,4971
2734.05,407.031,-380.4,2.9,4972
2734.6,407.215,-384.6,2.19,4973
2735.15,407.384,-380.3,2.9,4974
2735.7,407.567,-385.3,2.06,4975
2736.25,407.746,-382.9,2.45,4976
2736.8,407.922,-381.5,2.67,4977
2737.35,408.105,-384.5,2.17,4978
2737.9,408.292,-385.5,1.99,4979
2738.45,408.483,-386.8,1.77,4980
2739,408.669,-386.4,1.83,4981
2739.55,408.849,-384.7,2.09,4982
2740.1,409.028,-383.9,2.21,4983
2740.65,409.217,-386.8,1.73,4984
2741.2,409.402,-384.3,2.13,4985
2741.75,409.588,-386.2,1.8,4986
2742.3,409.781,-386.6,1.73,4987
2742.85,409.98,-387.5,1.57,4988
2743.4,410.174,-387.4,1.58,4989
2743.95,410.374,-386.5,1.72,4990
2744.5,410.577,-387.9,1.47,4991
2745.05,410.778,-386.4,1.72,4992
2745.6,410.986,-387.8,1.47,4993
2746.15,411.194,-388.4,1.37,4994
2746.7,411.402,-386.7,1.64,4995
2747.25,411.605,-390.8,0.95,4996
2747.8,411.817,-392.1,0.72,4997
2748.35,412.046,-393.8,0.44,4998
2748.9,412.277,-393.4,0.49,4999
2749.45,412.507,-393.7,0.43,5000
2750,412.739,-395.8,0.08,5001
2750.55,412.977,-392.2,0.66,5002
2751.1,413.198,-393.3,0.48,5003
2751.65,413.432,-394.7,0.23,5004
2752.2,413.669,-391.9,0.68,5005
2752.75,413.902,-392.5,0.57,5006
2753.3,414.139,-396.4,-0.08,5007
2753.85,414.392,-394.3,0.26,5008
2754.4,414.639,-393.2,0.43,5009
2754.95,414.882,-394.7,0.17,5010
2755.5,415.132,-394.9,0.12,5011
2756.05,415.384,-391.9,0.61,5012
2756.6,415.626,-393.6,0.31,5013
2757.15,415.875,-393.5,0.31,5014
2757.7,416.125,-394.7,0.1,5015
2758.25,416.38,-391.4,0.63,5016
2758.8,416.624,-393.1,0.33,5017
2759.35,416.874,-390.9,0.67,5018
2759.9,417.118,-389.8,0.83,5019
2760.45,417.358,-392.4,0.38,5020
2761,417.608,-392.6,0.32,5021
2761.55,417.86,-390.7,0.61,5022
2762.1,418.106,-393.8,0.08,5023
2762.65,418.364,-394.1,0.01,5024
2763.2,418.624,-395.7,-0.28,5025
2763.75,418.889,-395.8,-0.32,5026
2764.3,419.133,-395.2,-0.24,5027
2764.85,419.398,-395.7,-0.35,5028
2765.4,419.666,-394,-0.09,5029
2765.95,419.929,-397.1,-0.62,5030
2766.5,420.203,-396.1,-0.48,5031
2767.05,420.474,-394.8,-0.29,5032
2767.6,420.741,-396.5,-0.59,5033
2768.15,421.013,-397.3,-0.75,5034
2768.7,421.29,-400.9,-1.37,5035
2769.25,421.582,-401.1,-1.43,5036
2769.8,421.871,-402.7,-1.72,5037
2770.35,422.171,-403.4,-1.87,5038
2770.9,422.475,-401.3,-1.55,5039
2771.45,422.768,-400.9,-1.51,5040
2772,423.056,-405,-2.21,5041
2772.55,423.359,-407.1,-2.59,5042
2773.1,423.669,-404,-2.1,5043
2773.65,423.963,-405.3,-2.34,5044
2774.2,424.263,-398.8,-1.29,5045
2774.75,424.536,-392.3,-0.24,5046
2775.3,424.784,-390.1,0.09,5047
2775.85,425.027,-392.2,-0.29,5048
2776.4,425.277,-396.2,-0.99,5049
2776.95,425.537,-401.5,-1.9,5050
2777.5,425.813,-401,-1.85,5051
2778.05,426.09,-402.5,-2.13,5052
2778.6,426.39,-405.6,-2.67,5053
2779.15,426.715,-403.1,-2.29,5054
2779.7,427.02,-406.8,-2.93,5055
2780.25,427.343,-412.8,-3.95,5056
2780.8,427.684,-417.2,-4.7,5057
2781.35,428.065,-416.6,-4.63,5058
2781.9,428.444,-423.7,-5.83,5059
2782.45,428.868,-424.9,-6.05,5060
2783,429.259,-428.1,-6.61,5061
2783.55,429.718,-429,-6.79,5062
2784.1,430.187,-433.6,-7.58,5063
2784.65,430.693,-436.6,-8.1,5064
2785.2,431.226,-437,-8.19,5065
2785.75,431.767,-436.9,-8.19,5066
2786.3,432.326,-436.8,-8.19,5067
2786.85,432.87,-437.8,-8.39,5068
2787.4,433.425,-436,-8.12,5069
2787.95,433.969,-438.6,-8.58,5070
2788.5,434.472,-435.9,-8.17,5071
2789.05,435.023,-437.7,-8.49,5072
2789.6,435.592,-434.8,-8.03,5073
2790.15,436.141,-440,-8.91,5074
2790.7,436.726,-444.3,-9.63,5075
2791.25,437.267,-441.9,-9.25,5076
2791.8,437.827,-443.8,-9.6,5077
2792.35,438.423,-438.9,-8.8,5078
2792.9,439.039,-441.2,-9.19,5079
2793.45,439.625,-440.9,-9.15,5080
2794,440.206,-440.2,-9.04,5081
2794.55,440.798,-440.3,-9.07,5082
2795.1,441.388,-438.3,-8.73,5083
2795.65,441.954,-435.8,-8.33,5084
2796.2,442.535,-436.3,-8.42,5085
2796.75,443.12,-433.2,-7.91,5086
2797.3,443.682,-428.6,-7.15,5087
2797.85,444.216,-432.4,-7.77,5088
2798.4,444.785,-430.4,-7.45,5089
2798.95,445.342,-430.4,-7.45,5090
2799.5,445.9,-431.6,-7.65,5091
2800.05,446.471,-430.6,-7.48,5092
2800.6,447.034,-422.5,-6.15,5093
2801.15,447.536,-423.5,-6.32,5094
2801.7,448.047,-424.9,-6.56,5095
2802.25,448.573,-431.1,-7.58,5096
2802.8,449.151,-429.3,-7.28,5097
2803.35,449.719,-429.2,-7.26,5098
2803.9,450.288,-431.6,-7.65,5099
2804.45,450.881,-433.3,-7.92,5100
2805,451.492,-425.9,-6.7,5101
2805.55,452.042,-428.2,-7.07,5102
2806.1,452.613,-433.2,-7.89,5103
2806.65,453.229,-429.3,-7.24,5104
2807.2,453.816,-423.9,-6.34,5105
2807.75,454.4,-426.8,-6.81,5106
2808.3,454.969,-428,-7.01,5107
2808.85,455.55,-430.3,-7.39,5108
2809.4,456.156,-435.3,-8.21,5109
2809.95,456.813,-439.7,-8.92,5110
2810.5,457.519,-438.4,-8.7,5111
2811.05,458.216,-439.3,-8.83,5112
2811.6,458.942,-439.2,-8.8,5113
2812.15,459.652,-437.3,-8.47,5114
2812.7,460.344,-436.6,-8.34,5115
2813.25,461.031,-436.1,-8.24,5116
2813.8,461.713,-431.4,-7.45,5117
2814.35,462.35,-429.6,-7.15,5118
2814.9,462.97,-432.6,-7.63,5119
2815.45,463.62,-432.8,-7.65,5120
2816,464.257,-435.5,-8.08,5121
2816.55,464.951,-437.8,-8.44,5122
2817.1,465.657,-438.3,-8.5,5123
2817.65,466.367,-436.5,-8.17,5124
2818.2,467.058,-435.8,-8.03,5125
2818.75,467.74,-439.7,-8.64,5126
2819.3,468.461,-433.5,-7.58,5127
2819.85,469.115,-426.9,-6.47,5128
2820.4,469.706,-431.8,-7.26,5129
2820.95,470.337,-426.1,-6.3,5130
2821.5,470.916,-419.4,-5.18,5131
2822.05,471.435,-417.3,-4.83,5132
2822.6,471.934,-412.3,-4,5133
2823.15,472.392,-416.1,-4.62,5134
2823.7,472.88,-421.5,-5.5,5135
2824.25,473.409,-425.7,-6.17,5136
2824.8,473.97,-430.9,-7.01,5137
2825.35,474.576,-430.3,-6.89,5138
2825.9,475.16,-423.5,-5.75,5139
2826.45,475.696,-419.6,-5.09,5140
2827,476.2,-416.7,-4.61,5141
2827.55,476.679,-414.2,-4.19,5142
2828.1,477.138,-412.8,-3.95,5143
2828.65,477.586,-417,-4.64,5144
2829.2,478.062,-420.4,-5.19,5145
2829.75,478.562,-425.3,-5.98,5146
2830.3,479.099,-423.9,-5.73,5147
2830.85,479.623,-420.5,-5.15,5148
2831.4,480.119,-419.4,-4.95,5149
2831.95,480.605,-418.3,-4.76,5150
2832.5,481.081,-419.5,-4.94,5151
2833.05,481.571,-417.1,-4.53,5152
2833.6,482.035,-416,-4.34,5153
2834.15,482.489,-413.8,-3.97,5154
2834.7,482.928,-415,-4.15,5155
2835.25,483.371,-412.5,-3.74,5156
2835.8,483.798,-412.7,-3.76,5157
2836.35,484.225,-410.3,-3.36,5158
2836.9,484.635,-411.4,-3.54,5159
2837.45,485.051,-410.8,-3.44,5160
2838,485.462,-410.5,-3.39,5161
2838.55,485.87,-410.7,-3.42,5162
2839.1,486.279,-409.5,-3.22,5163
2839.65,486.679,-406.7,-2.76,5164
2840.2,487.062,-406.6,-2.75,5165
2840.75,487.444,-405.4,-2.56,5166
2841.3,487.817,-404.4,-2.4,5167
2841.85,488.185,-405.4,-2.57,5168
2842.4,488.555,-398,-1.36,5169
2842.95,488.889,-404.9,-2.51,5170
2843.5,489.256,-404.1,-2.39,5171
2844.05,489.62,-403.2,-2.25,5172
2844.6,489.978,-403.5,-2.31,5173
2845.15,490.338,-404.2,-2.44,5174
2845.7,490.701,-406.4,-2.81,5175
2846.25,491.076,-407.7,-3.03,5176
2846.8,491.456,-409,-3.25,5177
2847.35,491.845,-409,-3.25,5178
2847.9,492.234,-410,-3.42,5179
2848.45,492.628,-410,-3.42,5180
2849,493.022,-410.4,-3.5,5181
2849.55,493.416,-408.8,-3.23,5182
2850.1,493.802,-413,-3.93,5183
2850.65,494.208,-411.9,-3.75,5184
2851.2,494.6,-412,-3.78,5185
2851.75,495.001,-412,-3.78,5186
2852.3,495.401,-412,-3.79,5187
2852.85,495.8,-410.7,-3.58,5188
2853.4,496.19,-411.7,-3.74,5189
2853.95,496.584,-411.9,-3.78,5190
2854.5,496.978,-413,-3.97,5191
2855.05,497.376,-411.1,-3.66,5192
2855.6,497.762,-413,-3.97,5193
2856.15,498.157,-412.1,-3.83,5194
2856.7,498.545,-412.7,-3.93,5195
2857.25,498.934,-411.7,-3.77,5196
2857.8,499.316,-411.3,-3.72,5197
2858.35,499.694,-414.8,-4.3,5198
2858.9,500.09,-414.5,-4.25,5199
2859.45,500.482,-414.9,-4.31,5200
2860,500.875,-415.5,-4.41,5201
2860.55,501.269,-415.7,-4.45,5202
2861.1,501.663,-417.9,-4.81,5203
2861.65,502.067,-414,-4.16,5204
2862.2,502.446,-415.6,-4.43,5205
2862.75,502.832,-415.7,-4.45,5206
2863.3,503.217,-415.2,-4.37,5207
2863.85,503.596,-414.2,-4.21,5208
2864.4,503.968,-415.7,-4.46,5209
2864.95,504.346,-412.9,-4,5210
2865.5,504.708,-415.3,-4.4,5211
2866.05,505.08,-419.2,-5.04,5212
2866.6,505.474,-420.9,-5.32,5213
2867.15,505.875,-420.3,-5.21,5214
2867.7,506.271,-418.5,-4.91,5215
2868.25,506.654,-417.2,-4.7,5216
2868.8,507.027,-416.8,-4.63,5217
2869.35,507.396,-416.1,-4.52,5218
2869.9,507.758,-416.3,-4.55,5219
2870.45,508.12,-418.4,-4.9,5220
2871,508.493,-425.1,-6,5221
2871.55,508.902,-424.8,-5.94,5222
2872.1,509.308,-423.6,-5.73,5223
2872.65,509.704,-424,-5.78,5224
2873.2,510.1,-422.7,-5.55,5225
2873.75,510.487,-423.5,-5.67,5226
2874.3,510.876,-424.1,-5.76,5227
2874.85,511.267,-424.6,-5.83,5228
2875.4,511.658,-424.9,-5.86,5229
2875.95,512.049,-423.6,-5.63,5230
2876.5,512.432,-423.1,-5.53,5231
2877.05,512.809,-423,-5.49,5232
2877.6,513.185,-423.9,-5.62,5233
2878.15,513.563,-422.6,-5.38,5234
2878.7,513.933,-419,-4.77,5235
2879.25,514.282,-419.6,-4.84,5236
2879.8,514.633,-420.7,-5,5237
2880.35,514.989,-420.7,-4.98,5238
2880.9,515.343,-417.7,-4.46,5239
2881.45,515.681,-415.5,-4.08,5240
2882,516.006,-415.2,-4.01,5241
2882.55,516.329,-418.1,-4.48,5242
2883.1,516.666,-417.2,-4.31,5243
2883.65,516.998,-417.1,-4.28,5244
2884.2,517.329,-412.5,-3.51,5245
2884.75,517.637,-415.6,-4.01,5246
2885.3,517.96,-412.3,-3.46,5247
2885.85,518.267,-413.1,-3.59,5248
2886.4,518.578,-412.4,-3.47,5249
2886.95,518.885,-412.3,-3.45,5250
2887.5,519.193,-411,-3.23,5251
2888.05,519.495,-412.5,-3.48,5252
2888.6,519.804,-412.1,-3.41,5253
2889.15,520.111,-414.1,-3.75,5254
2889.7,520.416,-412.3,-3.45,5255
2890.25,520.726,-410.3,-3.12,5256
2890.8,521.027,-415.2,-3.94,5257
2891.35,521.353,-411.9,-3.4,5258
2891.9,521.664,-412.3,-3.47,5259
2892.45,521.978,-411.8,-3.4,5260
2893,522.29,-412.8,-3.58,5261
2893.55,522.61,-420.4,-4.84,5262
2894.1,522.969,-418.6,-4.55,5263
2894.65,523.321,-418.9,-4.61,5264
2895.2,523.675,-417,-4.3,5265
2895.75,524.022,-418.2,-4.51,5266
2896.3,524.375,-416.8,-4.29,5267
2896.85,524.728,-420.1,-4.84,5268
2897.4,525.099,-417.1,-4.35,5269
2897.95,525.452,-418.7,-4.64,5270
2898.5,525.808,-420.4,-4.93,5271
2899.05,526.184,-419.9,-4.86,5272
2899.6,526.559,-419.6,-4.82,5273
2900.15,526.935,-417.1,-4.42,5274
2900.7,527.299,-419.8,-4.9,5275
2901.25,527.683,-417.8,-4.58,5276
2901.8,528.056,-416,-4.31,5277
2902.35,528.422,-414.8,-4.14,5278
2902.9,528.783,-416.5,-4.44,5279
2903.45,529.157,-416.7,-4.5,5280
2904,529.534,-420.7,-5.18,5281
2904.55,529.939,-422.1,-5.43,5282
2905.1,530.357,-425.9,-6.07,5283
2905.65,530.804,-430,-6.75,5284
2906.2,531.284,-433.5,-7.33,5285
2906.75,531.795,-432.2,-7.12,5286
2907.3,532.302,-435.8,-7.71,5287
2907.85,532.841,-434.4,-7.48,5288
2908.4,533.375,-435.8,-7.71,5289
2908.95,533.926,-433,-7.24,5290
2909.5,534.459,-432.7,-7.2,5291
2910.05,534.994,-429.3,-6.64,5292
2910.6,535.508,-431.4,-6.99,5293
2911.15,536.044,-430,-6.76,5294
2911.7,536.575,-430.3,-6.82,5295
2912.25,537.113,-429.9,-6.76,5296
2912.8,537.652,-428.1,-6.47,5297
2913.35,538.194,-434.5,-7.53,5298
2913.9,538.784,-435.9,-7.77,5299
2914.45,539.391,-434.6,-7.56,5300
2915,539.991,-434,-7.46,5301
2915.55,540.589,-434.4,-7.55,5302
2916.1,541.188,-433.7,-7.43,5303
2916.65,541.788,-432.7,-7.28,5304
2917.2,542.381,-431.6,-7.1,5305
2917.75,542.964,-432.4,-7.24,5306
2918.3,543.554,-433,-7.35,5307
2918.85,544.149,-434.8,-7.64,5308
2919.4,544.758,-437.8,-8.13,5309
2919.95,545.367,-437.8,-8.12,5310
2920.5,545.985,-438,-8.14,5311
2921.05,546.604,-436.7,-7.91,5312
2921.6,547.202,-432.3,-7.17,5313
2922.15,547.746,-430.3,-6.82,5314
2922.7,548.28,-432.5,-7.17,5315
2923.25,548.818,-432.8,-7.2,5316
2923.8,549.348,-430.5,-6.81,5317
2924.35,549.855,-426.6,-6.14,5318
2924.9,550.322,-421.9,-5.35,5319
2925.45,550.761,-423.4,-5.58,5320
2926,551.208,-427.7,-6.28,5321
2926.55,551.673,-429,-6.48,5322
2927.1,552.129,-431.9,-6.94,5323
2927.65,552.607,-428.1,-6.29,5324
2928.2,553.047,-427.8,-6.23,5325
2928.75,553.481,-423,-5.42,5326
2929.3,553.874,-420.9,-5.07,5327
2929.85,554.25,-418.6,-4.68,5328
2930.4,554.604,-417.6,-4.52,5329
2930.95,554.948,-414.7,-4.04,5330
2931.5,555.265,-410.5,-3.35,5331
2932.05,555.563,-408.9,-3.09,5332
2932.6,555.844,-409.8,-3.25,5333
2933.15,556.126,-418.3,-4.67,5334
2933.7,556.411,-415.5,-4.21,5335
2934.25,556.719,-416.7,-4.41,5336
2934.8,557.013,-420.7,-5.07,5337
2935.35,557.308,-420,-4.95,5338
2935.9,557.616,-422.7,-5.38,5339
2936.45,557.911,-423.4,-5.49,5340
2937,558.214,-424.5,-5.66,5341
2937.55,558.514,-427.5,-6.15,5342
2938.1,558.823,-431.9,-6.86,5343
2938.65,559.133,-431.5,-6.77,5344
2939.2,559.461,-429.9,-6.48,5345
2939.75,559.778,-425.7,-5.75,5346
2940.3,560.077,-424.2,-5.48,5347
2940.85,560.352,-424,-5.43,5348
2941.4,560.625,-422.8,-5.21,5349
2941.95,560.89,-421.6,-5,5350
2942.5,561.149,-419.6,-4.65,5351
2943.05,561.404,-418.8,-4.49,5352
2943.6,561.649,-419.8,-4.64,5353
2944.15,561.889,-416.4,-4.07,5354
2944.7,562.13,-416.1,-4,5355
2945.25,562.357,-414.4,-3.7,5356
2945.8,562.582,-414.2,-3.66,5357
2946.35,562.799,-412.7,-3.4,5358
2946.9,563.015,-412.4,-3.33,5359
2947.45,563.225,-410.8,-3.06,5360
2948,563.433,-411.8,-3.22,5361
2948.55,563.636,-409.4,-2.81,5362
2949.1,563.841,-409.8,-2.87,5363
2949.65,564.039,-408.1,-2.59,5364
2950.2,564.238,-407.5,-2.49,5365
2950.75,564.432,-405.8,-2.21,5366
2951.3,564.627,-408,-2.58,5367
2951.85,564.815,-404.8,-2.05,5368
2952.4,564.994,-404.9,-2.07,5369
2952.95,565.179,-405.7,-2.21,5370
2953.5,565.365,-406,-2.27,5371
2954.05,565.554,-404.8,-2.08,5372
2954.6,565.745,-402,-1.63,5373
2955.15,565.933,-403.1,-1.82,5374
2955.7,566.114,-403.1,-1.84,5375
2956.25,566.298,-403.3,-1.89,5376
2956.8,566.484,-402.7,-1.8,5377
2957.35,566.671,-404,-2.02,5378
2957.9,566.857,-400.4,-1.44,5379
2958.45,567.047,-403,-1.87,5380
2959,567.231,-400.2,-1.42,5381
2959.55,567.42,-399,-1.22,5382
2960.1,567.602,-401.7,-1.68,5383
2960.65,567.781,-403.2,-1.93,5384
2961.2,567.969,-400.2,-1.44,5385
2961.75,568.161,-400.8,-1.54,5386
2962.3,568.346,-399.8,-1.38,5387
2962.85,568.532,-401.1,-1.59,5388
2963.4,568.716,-400.6,-1.51,5389
2963.95,568.905,-402.2,-1.77,5390
2964.5,569.093,-400.5,-1.49,5391
2965.05,569.285,-398.1,-1.09,5392
2965.6,569.474,-400.4,-1.47,5393
2966.15,569.656,-400.1,-1.42,5394
2966.7,569.845,-401.4,-1.64,5395
2967.25,570.034,-400.5,-1.48,5396
2967.8,570.228,-400.6,-1.5,5397
2968.35,570.419,-401.3,-1.61,5398
2968.9,570.612,-400.5,-1.48,5399
2969.45,570.807,-400.1,-1.42,5400
2970,571.001,-400.5,-1.49,5401
2970.55,571.194,-400.2,-1.45,5402
2971.1,571.39,-399.8,-1.38,5403
2971.65,571.585,-400.2,-1.44,5404
2972.2,571.78,-401.8,-1.69,5405
2972.75,571.977,-400.8,-1.51,5406
2973.3,572.178,-402.6,-1.79,5407
2973.85,572.378,-403.1,-1.86,5408
2974.4,572.583,-400.6,-1.43,5409
2974.95,572.79,-401.3,-1.53,5410
2975.5,572.991,-400.1,-1.32,5411
2976.05,573.193,-405.2,-2.15,5412
2976.6,573.392,-402.1,-1.63,5413
2977.15,573.608,-400.6,-1.35,5414
2977.7,573.814,-400.4,-1.29,5415
2978.25,574.016,-403.4,-1.76,5416
2978.8,574.217,-400.9,-1.31,5417
2979.35,574.428,-401.8,-1.41,5418
2979.9,574.631,-400.9,-1.23,5419
2980.45,574.837,-401.1,-1.22,5420
2981,575.04,-402.2,-1.37,5421
2981.55,575.244,-400,-0.99,5422
2982.1,575.452,-400.9,-1.14,5423
2982.65,575.654,-402.4,-1.42,5424
2983.2,575.861,-403.2,-1.62,5425
2983.75,576.076,-403.2,-1.73,5426
2984.3,576.297,-402.4,-1.73,5427
2984.85,576.523,-404.4,-2.11,5428
2985.4,576.749,-403.4,-1.95,5429
2985.95,576.981,-402.8,-1.83,5430
2986.5,577.214,-403,-1.87,5431
2987.05,577.447,-405.4,-2.27,5432
2987.6,577.684,-403.4,-1.95,5433
2988.15,577.932,-402.6,-1.83,5434
2988.7,578.166,-401.8,-1.71,5435
2989.25,578.402,-399.6,-1.36,5436
2989.8,578.645,-396.8,-0.92,5437
2990.35,578.883,-397.7,-1.08,5438
2990.9,579.114,-397.7,-1.1,5439
2991.45,579.352,-397.3,-1.06,5440
2992,579.592,-397.8,-1.16,5441
2992.55,579.836,-397.1,-1.07,5442
2993.1,580.084,-399.3,-1.46,5443
2993.65,580.335,-404.3,-2.31,5444
2994.2,580.598,-408.6,-3.04,5445
2994.75,580.878,-407.1,-2.81,5446
2995.3,581.193,-410.9,-3.45,5447
2995.85,581.507,-414.8,-4.1,5448
2996.4,581.846,-415.5,-4.23,5449
2996.95,582.213,-419,-4.81,5450
2997.5,582.592,-424.5,-5.72,5451
2998.05,582.999,-428.1,-6.31,5452
2998.6,583.449,-432.5,-7.03,5453
2999.15,583.928,-431.7,-6.89,5454
2999.7,584.446,-425.8,-5.9,5455
3000.25,584.984,-425,-5.75,5456
3000.8,585.485,-427.2,-6.1,5457
3001.35,585.99,-423.5,-5.49,5458
3001.9,586.521,-429.8,-6.52,5459
3002.45,587.034,-431.1,-6.73,5460
3003,587.62,-427.5,-6.11,5461
3003.55,588.205,-422,-5.18,5462
3004.1,588.778,-418.7,-4.62,5463
3004.65,589.314,-415.3,-4.05,5464
3005.2,589.83,-411.9,-3.48,5465
3005.75,590.337,-411.9,-3.47,5466
3006.3,590.816,-421.1,-4.99,5467
3006.85,591.301,-426.7,-5.92,5468
3007.4,591.862,-425.4,-5.68,5469
3007.95,592.474,-423.2,-5.3,5470
3008.5,593.083,-422,-5.09,5471
3009.05,593.666,-419.3,-4.63,5472
3009.6,594.256,-417.5,-4.32,5473
3010.15,594.821,-414.9,-3.89,5474
3010.7,595.401,-418.2,-4.42,5475
3011.25,595.959,-424.4,-5.44,5476
3011.8,596.546,-429.8,-6.31,5477
3012.35,597.19,-432.3,-6.7,5478
3012.9,597.892,-430.8,-6.42,5479
3013.45,598.667,-425.8,-5.54,5480
3014,599.4,-424.9,-5.35,5481
3014.55,600.096,-422.9,-4.99,5482
3015.1,600.791,-424.2,-5.18,5483
3015.65,601.487,-418.6,-4.23,5484
3016.2,602.124,-419.3,-4.33,5485
3016.75,602.788,-418.6,-4.19,5486
3017.3,603.474,-418.9,-4.22,5487
3017.85,604.15,-417.2,-3.92,5488
3018.4,604.834,-414.8,-3.51,5489
3018.95,605.507,-414.6,-3.47,5490
3019.5,606.161,-413.1,-3.21,5491
3020.05,606.819,-411.5,-2.94,5492
3020.6,607.474,-407.9,-2.35,5493
3021.15,608.079,-405.8,-2.01,5494
3021.7,608.674,-404.1,-1.74,5495
3022.25,609.269,-401.7,-1.37,5496
3022.8,609.854,-399.9,-1.09,5497
3023.35,610.425,-400.7,-1.26,5498
3023.9,610.985,-401.8,-1.47,5499
3024.45,611.541,-401.3,-1.43,5500
3025,612.13,-401.2,-1.46,5501
3025.55,612.717,-398.4,-1.04,5502
3026.1,613.31,-400,-1.35,5503
3026.65,613.878,-397.9,-1.04,5504
3027.2,614.466,-399.2,-1.3,5505
3027.75,615.06,-396.9,-0.97,5506
3028.3,615.672,-398.5,-1.28,5507
3028.85,616.273,-399.3,-1.46,5508
3029.4,616.895,-401.9,-1.94,5509
3029.95,617.533,-403.7,-2.28,5510
3030.5,618.205,-400.4,-1.79,5511
3031.05,618.904,-403.1,-2.29,5512
3031.6,619.576,-403.4,-2.38,5513
3032.15,620.278,-400.5,-1.96,5514
3032.7,620.95,-400.1,-1.95,5515
3033.25,621.644,-403.7,-2.59,5516
3033.8,622.342,-402.9,-2.52,5517
3034.35,623.054,-404.5,-2.84,5518
3034.9,623.796,-402.9,-2.63,5519
3035.45,624.562,-402.9,-2.69,5520
3036,625.316,-399.6,-2.2,5521
3036.55,626.073,-405.3,-3.19,5522
3037.1,626.8,-412.5,-4.42,5523
3037.65,627.597,-419,-5.54,5524
3038.2,628.49,-428.7,-7.17,5525
3038.75,629.486,-435.8,-8.37,5526
3039.3,630.645,-437.8,-8.72,5527
3039.85,631.964,-438.3,-8.8,5528
3040.4,633.312,-434.9,-8.24,5529
3040.95,634.676,-439,-8.9,5530
3041.5,635.956,-439.2,-8.92,5531
3042.05,637.31,-436.1,-8.39,5532
3042.6,638.664,-438,-8.68,5533
3043.15,639.948,-439.1,-8.84,5534
3043.7,641.262,-439.3,-8.86,5535
3044.25,642.589,-435.5,-8.21,5536
3044.8,643.907,-432.7,-7.73,5537
3045.35,645.119,-432.5,-7.68,5538
3045.9,646.222,-432.7,-7.71,5539
3046.45,647.328,-433.4,-7.82,5540
3047,648.431,-431.2,-7.46,5541
3047.55,649.522,-428.9,-7.07,5542
3048.1,650.556,-431.3,-7.47,5543
3048.65,651.553,-430.2,-7.29,5544
3049.2,652.589,-432.9,-7.72,5545
3049.75,653.588,-434.2,-7.92,5546
3050.3,654.607,-432.2,-7.58,5547
3050.85,655.611,-427.9,-6.87,5548
3051.4,656.55,-426.9,-6.71,5549
3051.95,657.42,-430.9,-7.38,5550
3052.5,658.255,-431.7,-7.52,5551
3053.05,659.093,-436.7,-8.36,5552
3053.6,659.97,-434.6,-8.02,5553
3054.15,660.865,-438.4,-8.64,5554
3054.7,661.743,-436.3,-8.3,5555
3055.25,662.653,-434.5,-8,5556
3055.8,663.513,-433.5,-7.82,5557
3056.35,664.289,-437.1,-8.42,5558
3056.9,665.075,-440.3,-8.94,5559
3057.45,665.887,-441,-9.05,5560
3058,666.722,-441,-9.03,5561
3058.55,667.546,-440.7,-8.95,5562
3059.1,668.348,-440.5,-8.89,5563
3059.65,669.129,-437.1,-8.31,5564
3060.2,669.852,-430.7,-7.24,5565
3060.75,670.509,-431,-7.28,5566
3061.3,671.102,-433,-7.62,5567
3061.85,671.706,-436.2,-8.16,5568
3062.4,672.29,-436.8,-8.25,5569
3062.95,672.908,-435.2,-7.99,5570
3063.5,673.52,-433.4,-7.68,5571
3064.05,674.132,-432.4,-7.51,5572
3064.6,674.722,-429.7,-7.05,5573
3065.15,675.293,-426.8,-6.54,5574
3065.7,675.849,-423.2,-5.94,5575
3066.25,676.364,-423.1,-5.89,5576
3066.8,676.871,-428.2,-6.71,5577
3067.35,677.33,-432.1,-7.34,5578
3067.9,677.788,-429.5,-6.9,5579
3068.45,678.267,-422,-5.65,5580
3069,678.78,-416.2,-4.67,5581
3069.55,679.269,-419.2,-5.15,5582
3070.1,679.721,-424.1,-5.95,5583
3070.65,680.122,-427.2,-6.46,5584
3071.2,680.542,-430.7,-7.02,5585
3071.75,680.987,-432.7,-7.34,5586
3072.3,681.449,-430.5,-6.95,5587
3072.85,681.935,-425.1,-6.02,5588
3073.4,682.433,-422.6,-5.58,5589
3073.95,682.912,-420.5,-5.2,5590
3074.5,683.371,-421.5,-5.34,5591
3075.05,683.792,-422.3,-5.46,5592
3075.6,684.198,-421,-5.23,5593
3076.15,684.61,-418.7,-4.83,5594
3076.7,685.025,-417.9,-4.68,5595
3077.25,685.431,-417.7,-4.62,5596
3077.8,685.823,-417.8,-4.61,5597
3078.35,686.211,-416.7,-4.41,5598
3078.9,686.589,-414.8,-4.07,5599
3079.45,686.965,-414.3,-3.97,5600
3080,687.342,-413,-3.73,5601
3080.55,687.708,-411.8,-3.5,5602
3081.1,688.07,-411.6,-3.44,5603
3081.65,688.435,-411.3,-3.36,5604
3082.2,688.786,-412.3,-3.5,5605
3082.75,689.136,-413.7,-3.7,5606
3083.3,689.486,-411.7,-3.35,5607
3083.85,689.836,-410.6,-3.14,5608
3084.4,690.193,-410.2,-3.05,5609
3084.95,690.54,-410.4,-3.05,5610
3085.5,690.88,-407.7,-2.59,5611
3086.05,691.219,-407.4,-2.51,5612
3086.6,691.562,-409,-2.75,5613
3087.15,691.888,-408.8,-2.7,5614
3087.7,692.21,-407.7,-2.5,5615
3088.25,692.539,-407.2,-2.39,5616
3088.8,692.871,-405.2,-2.04,5617
3089.35,693.188,-402.6,-1.6,5618
3089.9,693.514,-402.4,-1.55,5619
3090.45,693.83,-404.4,-1.86,5620
3091,694.129,-404.2,-1.82,5621
3091.55,694.439,-405.9,-2.08,5622
3092.1,694.761,-405.5,-2,5623
3092.65,695.072,-405.2,-1.94,5624
3093.2,695.392,-404.6,-1.83,5625
3093.75,695.713,-405.2,-1.92,5626
3094.3,696.03,-404.3,-1.77,5627
3094.85,696.351,-404.8,-1.85,5628
3095.4,696.673,-406.1,-2.07,5629
3095.95,696.992,-404.8,-1.86,5630
3096.5,697.31,-403.7,-1.69,5631
3097.05,697.637,-405.2,-1.94,5632
3097.6,697.97,-404.8,-1.88,5633
3098.15,698.299,-404.5,-1.84,5634
3098.7,698.634,-404.9,-1.92,5635
3099.25,698.974,-406.9,-2.26,5636
3099.8,699.317,-408.6,-2.55,5637
3100.35,699.665,-408.2,-2.49,5638
3100.9,700.027,-409.7,-2.75,5639
3101.45,700.404,-407.8,-2.45,5640
3102,700.784,-406.9,-2.31,5641
3102.55,701.177,-405.9,-2.16,5642
3103.1,701.564,-403.4,-1.77,5643
3103.65,701.952,-404.8,-2.02,5644
3104.2,702.339,-406.9,-2.4,5645
3104.75,702.719,-407.3,-2.49,5646
3105.3,703.114,-406.3,-2.36,5647
3105.85,703.529,-406.7,-2.45,5648
3106.4,703.956,-408.5,-2.78,5649
3106.95,704.384,-410,-3.05,5650
3107.5,704.825,-410.8,-3.21,5651
3108.05,705.287,-410.7,-3.21,5652
3108.6,705.77,-412.1,-3.46,5653
3109.15,706.27,-413.7,-3.75,5654
3109.7,706.78,-413.3,-3.7,5655
3110.25,707.312,-413,-3.67,5656
3110.8,707.87,-412.2,-3.56,5657
3111.35,708.436,-411.7,-3.5,5658
3111.9,709.011,-414.7,-4.02,5659
3112.45,709.591,-413.7,-3.88,5660
3113,710.178,-414.5,-4.06,5661
3113.55,710.806,-413.8,-4,5662
3114.1,711.436,-413.8,-4.05,5663
3114.65,712.087,-414.3,-4.19,5664
3115.2,712.743,-414.5,-4.29,5665
3115.75,713.41,-411.9,-3.9,5666
3116.3,714.092,-412.4,-4.02,5667
3116.85,714.808,-413.5,-4.23,5668
3117.4,715.479,-419.2,-5.2,5669
3117.95,716.162,-419.4,-5.26,5670
3118.5,716.86,-421.3,-5.59,5671
3119.05,717.625,-425.1,-6.23,5672
3119.6,718.378,-426.6,-6.47,5673
3120.15,719.147,-429.3,-6.92,5674
3120.7,720.001,-430.7,-7.13,5675
3121.25,720.764,-435.4,-7.9,5676
3121.8,721.643,-440.9,-8.77,5677
3122.35,722.534,-438.4,-8.32,5678
3122.9,723.478,-431.5,-7.14,5679
3123.45,724.233,-423.2,-5.75,5680
3124,724.982,-419.9,-5.18,5681
3124.55,725.802,-419.5,-5.07,5682
3125.1,726.535,-425.9,-6.1,5683
3125.65,727.213,-425.2,-5.96,5684
3126.2,727.948,-425.9,-6.05,5685
3126.75,728.662,-424.7,-5.83,5686
3127.3,729.369,-424,-5.69,5687
3127.85,730.05,-421.8,-5.31,5688
3128.4,730.709,-421.4,-5.23,5689
3128.95,731.331,-421.8,-5.28,5690
3129.5,731.946,-419.2,-4.85,5691
3130.05,732.602,-415.3,-4.2,5692
3130.6,733.241,-412.9,-3.79,5693
3131.15,733.803,-413.7,-3.93,5694
3131.7,734.327,-413.7,-3.95,5695
3132.25,734.843,-414.8,-4.15,5696
3132.8,735.336,-413.7,-3.99,5697
3133.35,735.855,-411.9,-3.72,5698
3133.9,736.355,-413.6,-4.03,5699
3134.45,736.837,-416.1,-4.47,5700
3135,737.354,-416.2,-4.52,5701
3135.55,737.809,-417.4,-4.76,5702
3136.1,738.294,-420.9,-5.38,5703
3136.65,738.799,-422.2,-5.62,5704
3137.2,739.277,-425.9,-6.27,5705
3137.75,739.778,-431.1,-7.16,5706
3138.3,740.294,-436.5,-8.08,5707
3138.85,740.867,-437.4,-8.24,5708
3139.4,741.465,-437.4,-8.25,5709
3139.95,742.086,-438.7,-8.47,5710
3140.5,742.707,-439.4,-8.6,5711
3141.05,743.325,-441.4,-8.95,5712
3141.6,743.934,-440.5,-8.84,5713
3142.15,744.545,-439.2,-8.67,5714
3142.7,745.171,-437.4,-8.41,5715
3143.25,745.782,-438.3,-8.56,5716
3143.8,746.375,-438.3,-8.56,5717
3144.35,746.947,-438.7,-8.62,5718
3144.9,747.52,-438.8,-8.63,5719
3145.45,748.091,-439.2,-8.69,5720
3146,748.642,-438.7,-8.6,5721
3146.55,749.203,-437.8,-8.44,5722
3147.1,749.766,-437.1,-8.32,5723
3147.65,750.322,-438.3,-8.5,5724
3148.2,750.878,-439,-8.58,5725
3148.75,751.428,-439.3,-8.59,5726
3149.3,751.99,-438.5,-8.42,5727
3149.85,752.561,-438.5,-8.37,5728
3150.4,753.139,-438,-8.24,5729
3150.95,753.716,-436.6,-7.97,5730
3151.5,754.3,-435.8,-7.79,5731
3152.05,754.886,-434.5,-7.54,5732
3152.6,755.475,-432.8,-7.22,5733
3153.15,756.06,-427.2,-6.25,5734
3153.7,756.643,-422.9,-5.5,5735
3154.25,757.22,-420.6,-5.09,5736
3154.8,757.758,-422,-5.3,5737
3155.35,758.265,-424.9,-5.77,5738
3155.9,758.757,-426.8,-6.07,5739
3156.45,759.282,-429,-6.43,5740
3157,759.838,-433.3,-7.12,5741
3157.55,760.417,-434.3,-7.27,5742
3158.1,761.022,-434.8,-7.33,5743
3158.65,761.692,-431.3,-6.72,5744
3159.2,762.387,-425.8,-5.78,5745
3159.75,763.083,-422.3,-5.16,5746
3160.3,763.761,-419.8,-4.72,5747
3160.85,764.399,-420.1,-4.76,5748
3161.4,765.016,-422.2,-5.1,5749
3161.95,765.628,-425,-5.56,5750
3162.5,766.238,-429,-6.22,5751
3163.05,766.88,-430.1,-6.4,5752
3163.6,767.558,-427.8,-6,5753
3164.15,768.299,-423.9,-5.33,5754
3164.7,769.072,-419.2,-4.54,5755
3165.25,769.831,-415,-3.84,5756
3165.8,770.559,-414.6,-3.8,5757
3166.35,771.249,-415.2,-3.93,5758
3166.9,771.907,-417.3,-4.32,5759
3167.45,772.553,-418.2,-4.52,5760
3168,773.239,-415.6,-4.13,5761
3168.55,773.957,-413.6,-3.82,5762
3169.1,774.703,-411.4,-3.47,5763
3169.65,775.442,-408.2,-2.96,5764
3170.2,776.159,-406.6,-2.69,5765
3170.75,776.861,-406.7,-2.7,5766
3171.3,777.536,-406.6,-2.67,5767
3171.85,778.201,-404.6,-2.34,5768
3172.4,778.873,-403.6,-2.17,5769
3172.95,779.549,-403.4,-2.13,5770
3173.5,780.209,-403.6,-2.17,5771
3174.05,780.863,-404.8,-2.37,5772
3174.6,781.519,-404.2,-2.28,5773
3175.15,782.18,-401.5,-1.84,5774
3175.7,782.856,-402.7,-2.04,5775
3176.25,783.528,-400.5,-1.7,5776
3176.8,784.173,-400.5,-1.71,5777
3177.35,784.83,-397,-1.15,5778
3177.9,785.47,-396.3,-1.05,5779
3178.45,786.105,-396.1,-1.04,5780
3179,786.706,-393.4,-0.63,5781
3179.55,787.298,-392.7,-0.54,5782
3180.1,787.885,-399.8,-1.75,5783
3180.65,788.442,-403.3,-2.37,5784
3181.2,789.019,-404.4,-2.59,5785
3181.75,789.635,-407.2,-3.09,5786
3182.3,790.282,-410.7,-3.7,5787
3182.85,790.937,-414,-4.27,5788
3183.4,791.618,-418.6,-5.05,5789
3183.95,792.331,-421.8,-5.61,5790
3184.5,793.079,-423.5,-5.91,5791
3185.05,793.876,-427.1,-6.51,5792
3185.6,794.708,-432,-7.33,5793
3186.15,795.556,-437.3,-8.23,5794
3186.7,796.449,-439,-8.53,5795
3187.25,797.408,-440.2,-8.73,5796
3187.8,798.443,-439,-8.54,5797
3188.35,799.501,-441.1,-8.88,5798
3188.9,800.589,-441.4,-8.92,5799
3189.45,801.662,-440.9,-8.82,5800
